###################################################################
## OUTPUT of StarlightChains_v04.for    [Cid@UFSC - 01/Apr/2007] ##
###################################################################

## Some input info
M33_LS1_20211119f_1.spec                 [arq_obs]
Base.BC03.N                              [arq_base]
Mask.EmLines_CHAOS_focusbluefit.gm       [arq_masks]
StCv04.C11.config                        [arq_config]
   45                                    [N_base]
    0                                    [N_YAV_components = # of components with extra extinction!]
    0                                    [i_FitPowerLaw (1/0 = Yes/No)]
-9.99                                    [alpha_PowerLaw]
CCM                                      [red_law_option]
 1.458241                                [q_norm = A(l_norm)/A(V)]

## (Re)Sampling Parameters
 3100.00                                 [l_ini (A)]
 5300.00                                 [l_fin (A)]
    1.00                                 [dl    (A)]     (OBS: dl_cushion =    50.00 A)

## Normalization info
 4020.00                                 [l_norm (A) - for base]
 4010.00                                 [llow_norm (A) - window for f_obs]
 4060.00                                 [lupp_norm (A) - window for f_obs]
2.409103E-16                             [fobs_norm (in input units)]

## S/N
 4730.00                                 [llow_SN (A) - window for S/N]
 4780.00                                 [lupp_SN (A) - window for S/N]
  29.439                                 [S/N in S/N window]
  36.757                                 [S/N in norm. window]
  30.784                                 [S/N_err in S/N window]
  38.437                                 [S/N_err in norm. window]
  1.0000                                 [fscale_chi2]

## etc...
    -2007200                             [idum_orig]
  1493                                   [NOl_eff]
  1000                                   [Nl_eff]
   493    NSIGMA                         [Ntot_cliped & clip_method]
   379680                                [Nglobal_steps]
   7                                     [N_chains]
   5                                     [NEX0s_base = N_base in EX0s-fits]
 0   0   1        0   2.0   5.096E+01    [Clip-Bug, RC-Crash & Burn-In warning-flags, n_censored_weights, wei_nsig_threshold & wei_limit]
     9      4.540      4.497      0.044  [idt_all, wdt_TotTime, wdt_UsrTime & wdt_SysTime (sec)]

## Synthesis Results - Best model ##

 1.94785E+00                             [chi2/Nl_eff]
     4.25714                             [adev (%)]

   108.97231                             [sum-of-x (%)]
 3.47599E-16                             [Flux_tot (units of input spectrum!)]
 9.40886E-12                             [Mini_tot (???)]
 4.74330E-12                             [Mcor_tot (???)]

   0.00                                  [v0_min  (km/s)]
 225.42                                  [vd_min  (km/s)]
 0.2090                                  [AV_min  (mag)]
 0.0000                                  [YAV_min (mag)]

# j     x_j(%)      Mini_j(%)     Mcor_j(%)     age_j(yr)     Z_j      (L/M)_j    YAV?  Mstars   component_j        a/Fe...       SSP_chi2r SSP_adev(%)   SSP_AV   SSP_x(%)
  1     92.6961     2.8210E-01    5.5958E-01    1.000000E+06  0.00400  1.114E-02    0   1.0000   age020_m42            0.0000     5.0797E+00     7.1922   1.4425   108.4375
  2      0.0000     0.0000E+00    0.0000E+00    3.160000E+06  0.00400  4.073E-02    0   0.9999   age045_m42            0.0000     1.6240E+01    13.4384   0.5318   119.7174
  3      0.0000     0.0000E+00    0.0000E+00    5.010000E+06  0.00400  2.534E-02    0   0.9488   age055_m42            0.0000     1.1402E+01    11.2995   0.9112   114.8673
  4      0.0000     0.0000E+00    0.0000E+00    1.000000E+07  0.00400  1.271E-02    0   0.8862   age070_m42            0.0000     1.2562E+01    11.7239   0.2800   117.1432
  5      0.0000     0.0000E+00    0.0000E+00    2.512000E+07  0.00400  5.070E-03    0   0.8174   age090_m42            0.0000     1.3806E+01    12.3640   0.1333   118.9774
  6      0.0000     0.0000E+00    0.0000E+00    4.000000E+07  0.00400  3.505E-03    0   0.7851   age104_m42            0.0000     1.6771E+01    13.7865  -0.2077   121.6435
  7      0.0000     0.0000E+00    0.0000E+00    1.015200E+08  0.00400  2.268E-03    0   0.7207   age116_m42            0.0000     3.7553E+01    20.5897  -0.1886   125.0006
  8      0.0000     0.0000E+00    0.0000E+00    2.861200E+08  0.00400  1.079E-03    0   0.6613   age125_m42            0.0000     4.6351E+01    22.9446  -0.6893   127.2216
  9      0.0000     0.0000E+00    0.0000E+00    6.405400E+08  0.00400  5.077E-04    0   0.6197   age132_m42            0.0000     4.9565E+01    23.4867  -1.0000   130.6242
 10      0.0000     0.0000E+00    0.0000E+00    9.047900E+08  0.00400  3.535E-04    0   0.6024   age135_m42            0.0000     4.7892E+01    22.4556  -1.0000   126.4041
 11      0.0000     0.0000E+00    0.0000E+00    1.434000E+09  0.00400  1.910E-04    0   0.5716   age139_m42            0.0000     5.2179E+01    23.2281  -1.0000   115.6873
 12      0.0000     0.0000E+00    0.0000E+00    2.500000E+09  0.00400  9.818E-05    0   0.5463   age150_m42            0.0000     6.0488E+01    25.5244  -1.0000   106.3017
 13      0.0000     0.0000E+00    0.0000E+00    5.000000E+09  0.00400  4.718E-05    0   0.5228   age161_m42            0.0000     6.8639E+01    27.4830  -1.0000   100.3368
 14      0.0000     0.0000E+00    0.0000E+00    1.100000E+10  0.00400  2.205E-05    0   0.4980   age185_m42            0.0000     8.5298E+01    31.2214  -1.0000    92.7175
 15      0.0000     0.0000E+00    0.0000E+00    1.300000E+10  0.00400  1.883E-05    0   0.4927   age193_m42            0.0000     8.7055E+01    31.5649  -1.0000    92.2995
 16      0.0013     2.2831E-06    4.5287E-06    1.000000E+06  0.02000  1.989E-02    0   1.0000   age020_m62            0.0000     5.3799E+00     7.3404   1.4095   109.1680
 17      0.0000     0.0000E+00    0.0000E+00    3.160000E+06  0.02000  3.772E-02    0   0.9858   age045_m62            0.0000     7.6571E+00     9.2145   1.2574   111.6367
 18      0.0000     0.0000E+00    0.0000E+00    5.010000E+06  0.02000  3.227E-02    0   0.9342   age055_m62            0.0000     1.6235E+01    13.5759   0.7709   116.6615
 19      0.0000     0.0000E+00    0.0000E+00    1.000000E+07  0.02000  1.011E-02    0   0.8751   age070_m62            0.0000     7.4724E+00     8.7692   0.4049   115.4701
 20      0.0000     0.0000E+00    0.0000E+00    2.512000E+07  0.02000  4.206E-03    0   0.8099   age090_m62            0.0000     1.0323E+01    10.6757   0.2264   116.2115
 21      0.0000     0.0000E+00    0.0000E+00    4.000000E+07  0.02000  3.373E-03    0   0.7799   age104_m62            0.0000     1.9332E+01    14.8536   0.0378   121.2063
 22      0.0000     0.0000E+00    0.0000E+00    1.015200E+08  0.02000  1.878E-03    0   0.7221   age116_m62            0.0000     3.5904E+01    20.2735  -0.1289   125.4591
 23      0.0000     0.0000E+00    0.0000E+00    2.861200E+08  0.02000  8.869E-04    0   0.6700   age125_m62            0.0000     5.5710E+01    25.0965  -0.6161   130.4492
 24      0.0000     0.0000E+00    0.0000E+00    6.405400E+08  0.02000  3.657E-04    0   0.6322   age132_m62            0.0000     5.8089E+01    24.8269  -1.0000   128.8162
 25      0.0000     0.0000E+00    0.0000E+00    9.047900E+08  0.02000  2.312E-04    0   0.6152   age135_m62            0.0000     5.9015E+01    24.4964  -1.0000   120.9974
 26      0.0000     0.0000E+00    0.0000E+00    1.434000E+09  0.02000  1.168E-04    0   0.5865   age139_m62            0.0000     6.6653E+01    26.7278  -1.0000   107.8688
 27      0.0000     0.0000E+00    0.0000E+00    2.500000E+09  0.02000  5.505E-05    0   0.5610   age150_m62            0.0000     8.4707E+01    30.7980  -1.0000    97.1279
 28      0.0000     0.0000E+00    0.0000E+00    5.000000E+09  0.02000  2.596E-05    0   0.5353   age161_m62            0.0000     1.0740E+02    35.1672  -1.0000    89.1951
 29      0.0004     1.0279E-03    1.0405E-03    1.100000E+10  0.02000  1.169E-05    0   0.5103   age185_m62            0.0000     1.3316E+02    39.3551  -1.0000    81.8987
 30      0.0000     0.0000E+00    0.0000E+00    1.300000E+10  0.02000  9.691E-06    0   0.5047   age193_m62            0.0000     1.3690E+02    39.8942  -1.0000    81.0792
 31      0.0000     0.0000E+00    0.0000E+00    1.000000E+06  0.05000  2.651E-02    0   0.9998   age020_m72            0.0000     5.8165E+00     7.6601   1.3867   109.9447
 32      0.0000     0.0000E+00    0.0000E+00    3.160000E+06  0.05000  4.817E-02    0   0.9577   age045_m72            0.0000     1.1631E+01    11.4890   1.0710   114.5654
 33      0.0000     0.0000E+00    0.0000E+00    5.010000E+06  0.05000  3.101E-02    0   0.9147   age055_m72            0.0000     1.1735E+01    11.4476   0.7952   116.5367
 34      0.0000     0.0000E+00    0.0000E+00    1.000000E+07  0.05000  8.954E-03    0   0.8524   age070_m72            0.0000     1.1172E+01    11.1344   0.9587   115.6088
 35      0.0000     0.0000E+00    0.0000E+00    2.512000E+07  0.05000  4.207E-03    0   0.7902   age090_m72            0.0000     1.8093E+01    14.4477   0.5595   119.5444
 36      0.0000     0.0000E+00    0.0000E+00    4.000000E+07  0.05000  3.198E-03    0   0.7618   age104_m72            0.0000     2.6801E+01    17.5201   0.1693   123.0927
 37      0.0000     0.0000E+00    0.0000E+00    1.015200E+08  0.05000  1.716E-03    0   0.7092   age116_m72            0.0000     4.2009E+01    21.8244  -0.0263   124.9100
 38      0.0000     0.0000E+00    0.0000E+00    2.861200E+08  0.05000  7.047E-04    0   0.6618   age125_m72            0.0000     5.7671E+01    25.5264  -0.8673   131.6707
 39      0.0000     0.0000E+00    0.0000E+00    6.405400E+08  0.05000  2.633E-04    0   0.6253   age132_m72            0.0000     6.2212E+01    25.1160  -1.0000   120.8925
 40      0.0000     0.0000E+00    0.0000E+00    9.047900E+08  0.05000  1.484E-04    0   0.6088   age135_m72            0.0000     7.3127E+01    27.8260  -1.0000   106.3518
 41      0.0000     0.0000E+00    0.0000E+00    1.434000E+09  0.05000  7.827E-05    0   0.5847   age139_m72            0.0000     9.3740E+01    32.3334  -1.0000    94.6759
 42      0.0000     0.0000E+00    0.0000E+00    2.500000E+09  0.05000  3.759E-05    0   0.5583   age150_m72            0.0000     1.1479E+02    36.3663  -1.0000    86.9304
 43      0.0000     0.0000E+00    0.0000E+00    5.000000E+09  0.05000  1.548E-05    0   0.5320   age161_m72            0.0000     1.3922E+02    40.2733  -1.0000    78.2704
 44      3.4293     1.7799E+01    1.7900E+01    1.100000E+10  0.05000  6.532E-06    0   0.5070   age185_m72            0.0000     1.6595E+02    43.9484  -1.0000    69.9111
 45     12.8452     8.1918E+01    8.1539E+01    1.300000E+10  0.05000  5.316E-06    0   0.5018   age193_m72            0.0000     1.7494E+02    45.0655  -1.0000    67.4284


## Synthesis Results - Average & Chains ##

# j      x_j: min, <> & last-chain-values for 1 ...  7 chains
  1     92.6961     83.5878     85.2488     83.7519     84.5230     85.1280     88.4497     85.0324     85.3561
  2      0.0000      0.0111      0.0000      0.0000      0.0000      0.0000      0.0000      0.0000      0.0000
  3      0.0000      0.0266      0.0000      0.0000      0.0000      0.0000      0.0000      0.0000      0.0000
  4      0.0000      0.0106      0.0000      0.0000      0.0000      0.0000      0.0000      0.0000      0.0000
  5      0.0000      0.0118      0.0000      0.0000      0.0000      0.0000      0.0000      0.0000      0.0000
  6      0.0000      0.0075      0.0000      0.0000      0.0000      0.0000      0.0000      0.0000      0.0000
  7      0.0000      0.0021      0.0000      0.0000      0.0000      0.0000      0.0000      0.0000      0.0000
  8      0.0000      0.0014      0.0000      0.0000      0.0000      0.0000      0.0000      0.0000      0.0000
  9      0.0000      0.0034      0.0000      0.0000      0.0000      0.0000      0.0000      0.0000      0.0000
 10      0.0000      0.0020      0.0000      0.0000      0.0000      0.0000      0.0000      0.0000      0.0000
 11      0.0000      0.0033      0.0000      0.0000      0.0000      0.0000      0.0000      0.0000      0.0000
 12      0.0000      0.0088      0.0000      0.0000      0.0000      0.0000      0.0000      0.0000      0.0000
 13      0.0000      0.0144      0.0000      0.0000      0.0000      0.0000      0.0000      0.0000      0.0000
 14      0.0000      0.0188      0.0000      0.0000      0.0000      0.0000      0.0000      0.0000      0.0000
 15      0.0000      0.0220      0.0000      0.0000      0.0000      0.0000      0.0000      0.0000      0.0000
 16      0.0013      7.9344      7.1886      8.3062      6.3271      7.3072      3.2563      7.1395      7.0717
 17      0.0000      0.1017      0.0902      0.0000      0.4971      0.0000      0.0000      0.0000      0.0000
 18      0.0000      0.0200      0.0000      0.0000      0.0000      0.0000      0.0000      0.0000      0.0000
 19      0.0000      0.0217      0.0000      0.0000      0.0000      0.0000      0.2722      0.0000      0.0000
 20      0.0000      0.0123      0.0000      0.0000      0.0000      0.0000      0.0000      0.0000      0.0000
 21      0.0000      0.0055      0.0000      0.0000      0.0000      0.0000      0.0000      0.0000      0.0000
 22      0.0000      0.0020      0.0000      0.0000      0.0000      0.0000      0.0000      0.0000      0.0000
 23      0.0000      0.0019      0.0000      0.0000      0.0000      0.0438      0.0000      0.0000      0.0000
 24      0.0000      0.0021      0.0000      0.0000      0.0000      0.0000      0.0000      0.0000      0.0000
 25      0.0000      0.0072      0.0000      0.0000      0.0000      0.0000      0.0000      0.0000      0.0000
 26      0.0000      0.0060      0.0000      0.0000      0.0000      0.0000      0.0000      0.0000      0.0000
 27      0.0000      0.0178      0.0000      0.0012      0.0000      0.0000      0.0000      0.0000      0.0000
 28      0.0000      0.0893      0.0000      0.0000      0.0000      0.0000      0.0000      0.0000      0.0000
 29      0.0004      0.2754      0.2480      0.0000      0.0000      0.0000      0.0000      0.0146      0.0000
 30      0.0000      0.3746      0.2932      0.1325      0.0000      0.0000      0.5682      0.0000      0.7052
 31      0.0000      0.2014      0.0000      0.0000      0.4795      0.0000      0.0000      0.0000      0.0000
 32      0.0000      0.0353      0.0289      0.0000      0.0000      0.0044      0.0000      0.0000      0.0000
 33      0.0000      0.0206      0.0000      0.0000      0.0000      0.0000      0.0000      0.0000      0.0000
 34      0.0000      0.0221      0.0000      0.0000      0.0000      0.0000      0.0000      0.0050      0.0000
 35      0.0000      0.0089      0.0000      0.0000      0.0000      0.0000      0.0000      0.0045      0.0000
 36      0.0000      0.0037      0.0000      0.0000      0.0000      0.0000      0.0000      0.0000      0.0000
 37      0.0000      0.0016      0.0000      0.0000      0.0000      0.0000      0.0000      0.0000      0.0000
 38      0.0000      0.0017      0.0000      0.0000      0.0000      0.0000      0.0000      0.0000      0.0000
 39      0.0000      0.0021      0.0000      0.0000      0.0000      0.0000      0.0000      0.0000      0.0000
 40      0.0000      0.0097      0.0000      0.0000      0.0000      0.0000      0.0000      0.0000      0.0000
 41      0.0000      0.0090      0.0000      0.0536      0.0405      0.0000      0.0000      0.0000      0.0000
 42      0.0000      0.0353      0.0000      0.0000      0.0000      0.0000      0.0000      0.0000      0.0000
 43      0.0000      0.0528      0.0000      0.0000      0.0000      0.0000      0.0000      0.0000      0.0000
 44      3.4293      5.4249      4.9565      5.5064      5.6956      5.7116      5.0558      5.3527      5.2672
 45     12.8452     10.8144     11.2873     11.2658     11.4385     11.0540     11.5328     11.5724     10.8399

# j      m_j: min, <> & last-chain-values for 1 ...  7 chains
  1  5.5958E-01  5.0456E-01  5.1557E-01  4.9919E-01  4.9589E-01  5.1122E-01  5.2278E-01  5.0335E-01  5.1883E-01
  2  0.0000E+00  1.8383E-05  0.0000E+00  0.0000E+00  0.0000E+00  0.0000E+00  0.0000E+00  0.0000E+00  0.0000E+00
  3  0.0000E+00  6.7031E-05  0.0000E+00  0.0000E+00  0.0000E+00  0.0000E+00  0.0000E+00  0.0000E+00  0.0000E+00
  4  0.0000E+00  4.9530E-05  0.0000E+00  0.0000E+00  0.0000E+00  0.0000E+00  0.0000E+00  0.0000E+00  0.0000E+00
  5  0.0000E+00  1.2823E-04  0.0000E+00  0.0000E+00  0.0000E+00  0.0000E+00  0.0000E+00  0.0000E+00  0.0000E+00
  6  0.0000E+00  1.1351E-04  0.0000E+00  0.0000E+00  0.0000E+00  0.0000E+00  0.0000E+00  0.0000E+00  0.0000E+00
  7  0.0000E+00  4.5177E-05  0.0000E+00  0.0000E+00  0.0000E+00  0.0000E+00  0.0000E+00  0.0000E+00  0.0000E+00
  8  0.0000E+00  5.9579E-05  0.0000E+00  0.0000E+00  0.0000E+00  0.0000E+00  0.0000E+00  0.0000E+00  0.0000E+00
  9  0.0000E+00  2.8084E-04  0.0000E+00  0.0000E+00  0.0000E+00  0.0000E+00  0.0000E+00  0.0000E+00  0.0000E+00
 10  0.0000E+00  2.2518E-04  0.0000E+00  0.0000E+00  0.0000E+00  0.0000E+00  0.0000E+00  0.0000E+00  0.0000E+00
 11  0.0000E+00  6.5734E-04  0.0000E+00  0.0000E+00  0.0000E+00  0.0000E+00  0.0000E+00  0.0000E+00  0.0000E+00
 12  0.0000E+00  3.3112E-03  0.0000E+00  0.0000E+00  0.0000E+00  0.0000E+00  0.0000E+00  0.0000E+00  0.0000E+00
 13  0.0000E+00  1.0734E-02  0.0000E+00  0.0000E+00  0.0000E+00  0.0000E+00  0.0000E+00  0.0000E+00  0.0000E+00
 14  0.0000E+00  2.8494E-02  0.0000E+00  0.0000E+00  0.0000E+00  0.0000E+00  0.0000E+00  0.0000E+00  0.0000E+00
 15  0.0000E+00  3.8727E-02  0.0000E+00  0.0000E+00  0.0000E+00  0.0000E+00  0.0000E+00  0.0000E+00  0.0000E+00
 16  4.5287E-06  2.6825E-02  2.4350E-02  2.7728E-02  2.0790E-02  2.4577E-02  1.0780E-02  2.3670E-02  2.4075E-02
 17  0.0000E+00  1.7871E-04  1.5878E-04  0.0000E+00  8.4916E-04  0.0000E+00  0.0000E+00  0.0000E+00  0.0000E+00
 18  0.0000E+00  3.8944E-05  0.0000E+00  0.0000E+00  0.0000E+00  0.0000E+00  0.0000E+00  0.0000E+00  0.0000E+00
 19  0.0000E+00  1.2644E-04  0.0000E+00  0.0000E+00  0.0000E+00  0.0000E+00  1.5513E-03  0.0000E+00  0.0000E+00
 20  0.0000E+00  1.5947E-04  0.0000E+00  0.0000E+00  0.0000E+00  0.0000E+00  0.0000E+00  0.0000E+00  0.0000E+00
 21  0.0000E+00  8.6023E-05  0.0000E+00  0.0000E+00  0.0000E+00  0.0000E+00  0.0000E+00  0.0000E+00  0.0000E+00
 22  0.0000E+00  5.0428E-05  0.0000E+00  0.0000E+00  0.0000E+00  0.0000E+00  0.0000E+00  0.0000E+00  0.0000E+00
 23  0.0000E+00  9.4626E-05  0.0000E+00  0.0000E+00  0.0000E+00  2.2131E-03  0.0000E+00  0.0000E+00  0.0000E+00
 24  0.0000E+00  2.4953E-04  0.0000E+00  0.0000E+00  0.0000E+00  0.0000E+00  0.0000E+00  0.0000E+00  0.0000E+00
 25  0.0000E+00  1.2950E-03  0.0000E+00  0.0000E+00  0.0000E+00  0.0000E+00  0.0000E+00  0.0000E+00  0.0000E+00
 26  0.0000E+00  2.0236E-03  0.0000E+00  0.0000E+00  0.0000E+00  0.0000E+00  0.0000E+00  0.0000E+00  0.0000E+00
 27  0.0000E+00  1.2175E-02  0.0000E+00  8.0886E-04  0.0000E+00  0.0000E+00  0.0000E+00  0.0000E+00  0.0000E+00
 28  0.0000E+00  1.2382E-01  0.0000E+00  0.0000E+00  0.0000E+00  0.0000E+00  0.0000E+00  0.0000E+00  0.0000E+00
 29  1.0405E-03  8.0834E-01  7.2941E-01  0.0000E+00  0.0000E+00  0.0000E+00  0.0000E+00  4.2016E-02  0.0000E+00
 30  0.0000E+00  1.3119E+00  1.0289E+00  4.5833E-01  0.0000E+00  0.0000E+00  1.9483E+00  0.0000E+00  2.4869E+00
 31  0.0000E+00  5.1086E-04  0.0000E+00  0.0000E+00  1.1818E-03  0.0000E+00  0.0000E+00  0.0000E+00  0.0000E+00
 32  0.0000E+00  4.7257E-05  3.8677E-05  0.0000E+00  0.0000E+00  5.9163E-06  0.0000E+00  0.0000E+00  0.0000E+00
 33  0.0000E+00  4.0817E-05  0.0000E+00  0.0000E+00  0.0000E+00  0.0000E+00  0.0000E+00  0.0000E+00  0.0000E+00
