###################################################################
## OUTPUT of StarlightChains_v04.for    [Cid@UFSC - 01/Apr/2007] ##
###################################################################

## Some input info
M33_LS5_20211119f_2.spec                 [arq_obs]
Base.BC03.N                              [arq_base]
Mask.EmLines_CHAOS_focusbluefit.gm       [arq_masks]
StCv04.C11.config                        [arq_config]
   45                                    [N_base]
    0                                    [N_YAV_components = # of components with extra extinction!]
    0                                    [i_FitPowerLaw (1/0 = Yes/No)]
-9.99                                    [alpha_PowerLaw]
CCM                                      [red_law_option]
 1.458241                                [q_norm = A(l_norm)/A(V)]

## (Re)Sampling Parameters
 3100.00                                 [l_ini (A)]
 5300.00                                 [l_fin (A)]
    1.00                                 [dl    (A)]     (OBS: dl_cushion =    50.00 A)

## Normalization info
 4020.00                                 [l_norm (A) - for base]
 4010.00                                 [llow_norm (A) - window for f_obs]
 4060.00                                 [lupp_norm (A) - window for f_obs]
3.258430E-15                             [fobs_norm (in input units)]

## S/N
 4730.00                                 [llow_SN (A) - window for S/N]
 4780.00                                 [lupp_SN (A) - window for S/N]
 113.247                                 [S/N in S/N window]
 173.994                                 [S/N in norm. window]
  52.127                                 [S/N_err in S/N window]
  80.089                                 [S/N_err in norm. window]
  1.0000                                 [fscale_chi2]

## etc...
    -2007207                             [idum_orig]
  1493                                   [NOl_eff]
  1427                                   [Nl_eff]
    66    NSIGMA                         [Ntot_cliped & clip_method]
   536480                                [Nglobal_steps]
   7                                     [N_chains]
   5                                     [NEX0s_base = N_base in EX0s-fits]
 0   0   1        0   2.0   1.088E+02    [Clip-Bug, RC-Crash & Burn-In warning-flags, n_censored_weights, wei_nsig_threshold & wei_limit]
     6      5.168      5.136      0.032  [idt_all, wdt_TotTime, wdt_UsrTime & wdt_SysTime (sec)]

## Synthesis Results - Best model ##

 1.33479E+00                             [chi2/Nl_eff]
     2.02879                             [adev (%)]

   103.74893                             [sum-of-x (%)]
 6.18130E-15                             [Flux_tot (units of input spectrum!)]
 2.83261E-11                             [Mini_tot (???)]
 1.45881E-11                             [Mcor_tot (???)]

 105.14                                  [v0_min  (km/s)]
 122.38                                  [vd_min  (km/s)]
 0.4493                                  [AV_min  (mag)]
 0.0000                                  [YAV_min (mag)]

# j     x_j(%)      Mini_j(%)     Mcor_j(%)     age_j(yr)     Z_j      (L/M)_j    YAV?  Mstars   component_j        a/Fe...       SSP_chi2r SSP_adev(%)   SSP_AV   SSP_x(%)
  1     80.3052     1.5162E+00    2.9441E+00    1.000000E+06  0.00400  1.114E-02    0   1.0000   age020_m42            0.0000     1.7652E+00     2.2757   0.7746   103.3069
  2      0.0000     0.0000E+00    0.0000E+00    3.160000E+06  0.00400  4.073E-02    0   0.9999   age045_m42            0.0000     2.6860E+01     9.3744  -0.3367   118.4030
  3      0.0000     0.0000E+00    0.0000E+00    5.010000E+06  0.00400  2.534E-02    0   0.9488   age055_m42            0.0000     1.1475E+01     6.1146   0.1364   111.8669
  4      0.0000     0.0000E+00    0.0000E+00    1.000000E+07  0.00400  1.271E-02    0   0.8862   age070_m42            0.0000     1.7960E+01     7.2924  -0.5437   115.0809
  5      0.0000     0.0000E+00    0.0000E+00    2.512000E+07  0.00400  5.070E-03    0   0.8174   age090_m42            0.0000     2.0552E+01     7.9132  -0.6993   116.9388
  6      0.0000     0.0000E+00    0.0000E+00    4.000000E+07  0.00400  3.505E-03    0   0.7851   age104_m42            0.0000     2.7772E+01     9.4906  -1.0000   119.0180
  7      0.0000     0.0000E+00    0.0000E+00    1.015200E+08  0.00400  2.268E-03    0   0.7207   age116_m42            0.0000     1.1666E+02    18.8008  -1.0000   124.3920
  8      0.0000     0.0000E+00    0.0000E+00    2.861200E+08  0.00400  1.079E-03    0   0.6613   age125_m42            0.0000     1.6481E+02    21.1544  -1.0000   117.8244
  9      0.0000     0.0000E+00    0.0000E+00    6.405400E+08  0.00400  5.077E-04    0   0.6197   age132_m42            0.0000     2.0673E+02    24.1178  -1.0000   114.8080
 10      0.0000     0.0000E+00    0.0000E+00    9.047900E+08  0.00400  3.535E-04    0   0.6024   age135_m42            0.0000     2.1664E+02    25.5424  -1.0000   109.8567
 11      0.0000     0.0000E+00    0.0000E+00    1.434000E+09  0.00400  1.910E-04    0   0.5716   age139_m42            0.0000     2.7094E+02    29.8209  -1.0000    97.9426
 12      0.0000     0.0000E+00    0.0000E+00    2.500000E+09  0.00400  9.818E-05    0   0.5463   age150_m42            0.0000     3.1101E+02    33.2440  -1.0000    88.7219
 13      0.0000     0.0000E+00    0.0000E+00    5.000000E+09  0.00400  4.718E-05    0   0.5228   age161_m42            0.0000     3.4275E+02    35.3855  -1.0000    83.0718
 14      0.0000     0.0000E+00    0.0000E+00    1.100000E+10  0.00400  2.205E-05    0   0.4980   age185_m42            0.0000     4.0686E+02    38.6850  -1.0000    75.8136
 15      0.0000     0.0000E+00    0.0000E+00    1.300000E+10  0.00400  1.883E-05    0   0.4927   age193_m42            0.0000     4.1199E+02    38.9270  -1.0000    75.3945
 16      0.0000     0.0000E+00    0.0000E+00    1.000000E+06  0.02000  1.989E-02    0   1.0000   age020_m62            0.0000     2.4035E+00     2.6001   0.7399   104.0625
 17     19.6763     1.0972E-01    2.1002E-01    3.160000E+06  0.02000  3.772E-02    0   0.9858   age045_m62            0.0000     3.6647E+00     3.3377   0.5696   106.8588
 18      0.0000     0.0000E+00    0.0000E+00    5.010000E+06  0.02000  3.227E-02    0   0.9342   age055_m62            0.0000     2.2493E+01     8.7411  -0.0797   115.2735
 19      0.0000     0.0000E+00    0.0000E+00    1.000000E+07  0.02000  1.011E-02    0   0.8751   age070_m62            0.0000     6.1782E+00     4.1147  -0.3181   111.1973
 20      0.0000     0.0000E+00    0.0000E+00    2.512000E+07  0.02000  4.206E-03    0   0.8099   age090_m62            0.0000     9.2275E+00     5.2618  -0.4999   111.9660
 21      0.0000     0.0000E+00    0.0000E+00    4.000000E+07  0.02000  3.373E-03    0   0.7799   age104_m62            0.0000     3.5772E+01    10.7398  -0.8673   120.5789
 22      0.0000     0.0000E+00    0.0000E+00    1.015200E+08  0.02000  1.878E-03    0   0.7221   age116_m62            0.0000     1.0222E+02    17.9950  -1.0000   125.7824
 23      0.0000     0.0000E+00    0.0000E+00    2.861200E+08  0.02000  8.869E-04    0   0.6700   age125_m62            0.0000     2.0317E+02    23.5500  -1.0000   122.1138
 24      0.0000     0.0000E+00    0.0000E+00    6.405400E+08  0.02000  3.657E-04    0   0.6322   age132_m62            0.0000     2.5907E+02    27.7921  -1.0000   111.1081
 25      0.0000     0.0000E+00    0.0000E+00    9.047900E+08  0.02000  2.312E-04    0   0.6152   age135_m62            0.0000     2.8676E+02    30.1950  -1.0000   102.7511
 26      0.0000     0.0000E+00    0.0000E+00    1.434000E+09  0.02000  1.168E-04    0   0.5865   age139_m62            0.0000     3.3244E+02    34.2402  -1.0000    89.9482
 27      0.0000     0.0000E+00    0.0000E+00    2.500000E+09  0.02000  5.505E-05    0   0.5610   age150_m62            0.0000     4.0729E+02    38.4315  -1.0000    79.7637
 28      0.0000     0.0000E+00    0.0000E+00    5.000000E+09  0.02000  2.596E-05    0   0.5353   age161_m62            0.0000     4.9077E+02    42.1348  -1.0000    72.3045
 29      0.8639     1.5544E+01    1.5402E+01    1.100000E+10  0.02000  1.169E-05    0   0.5103   age185_m62            0.0000     5.7923E+02    45.5841  -1.0000    65.6454
 30      1.0159     2.2048E+01    2.1607E+01    1.300000E+10  0.02000  9.691E-06    0   0.5047   age193_m62            0.0000     5.9102E+02    46.0062  -1.0000    64.8869
 31      0.0000     0.0000E+00    0.0000E+00    1.000000E+06  0.05000  2.651E-02    0   0.9998   age020_m72            0.0000     2.8083E+00     2.7673   0.7120   104.9794
 32      0.0000     0.0000E+00    0.0000E+00    3.160000E+06  0.05000  4.817E-02    0   0.9577   age045_m72            0.0000     9.7398E+00     5.6141   0.3254   111.0595
 33      0.0000     0.0000E+00    0.0000E+00    5.010000E+06  0.05000  3.101E-02    0   0.9147   age055_m72            0.0000     1.1349E+01     5.9621   0.0321   113.3404
 34      0.0000     0.0000E+00    0.0000E+00    1.000000E+07  0.05000  8.954E-03    0   0.8524   age070_m72            0.0000     1.0676E+01     5.7077   0.2110   112.1280
 35      0.0000     0.0000E+00    0.0000E+00    2.512000E+07  0.05000  4.207E-03    0   0.7902   age090_m72            0.0000     2.7010E+01     9.5460  -0.2966   118.0276
 36      0.0000     0.0000E+00    0.0000E+00    4.000000E+07  0.05000  3.198E-03    0   0.7618   age104_m72            0.0000     6.7334E+01    14.6899  -0.8692   125.0600
 37      0.0000     0.0000E+00    0.0000E+00    1.015200E+08  0.05000  1.716E-03    0   0.7092   age116_m72            0.0000     1.2037E+02    19.9105  -1.0000   126.9515
 38      0.0000     0.0000E+00    0.0000E+00    2.861200E+08  0.05000  7.047E-04    0   0.6618   age125_m72            0.0000     2.2620E+02    24.7319  -1.0000   118.1821
 39      0.0000     0.0000E+00    0.0000E+00    6.405400E+08  0.05000  2.633E-04    0   0.6253   age132_m72            0.0000     3.0060E+02    30.6504  -1.0000   102.5312
 40      0.0000     0.0000E+00    0.0000E+00    9.047900E+08  0.05000  1.484E-04    0   0.6088   age135_m72            0.0000     3.5968E+02    35.3056  -1.0000    88.3472
 41      0.0000     0.0000E+00    0.0000E+00    1.434000E+09  0.05000  7.827E-05    0   0.5847   age139_m72            0.0000     4.4078E+02    39.8107  -1.0000    77.3831
 42      0.0000     0.0000E+00    0.0000E+00    2.500000E+09  0.05000  3.759E-05    0   0.5583   age150_m72            0.0000     5.1395E+02    43.1076  -1.0000    70.2880
 43      0.0000     0.0000E+00    0.0000E+00    5.000000E+09  0.05000  1.548E-05    0   0.5320   age161_m72            0.0000     5.9892E+02    46.3512  -1.0000    62.5408
 44      1.8876     6.0782E+01    5.9837E+01    1.100000E+10  0.05000  6.532E-06    0   0.5070   age185_m72            0.0000     6.8837E+02    49.3570  -1.0000    55.2923
 45      0.0000     0.0000E+00    0.0000E+00    1.300000E+10  0.05000  5.316E-06    0   0.5018   age193_m72            0.0000     7.1719E+02    50.2426  -1.0000    53.1740


## Synthesis Results - Average & Chains ##

# j      x_j: min, <> & last-chain-values for 1 ...  7 chains
  1     80.3052     85.9008     85.7497     86.3911     85.0776     86.2351     86.2519     85.0415     86.3363
  2      0.0000      0.0052      0.0000      0.0000      0.0000      0.0000      0.0000      0.0000      0.0000
  3      0.0000      0.0256      0.0000      0.0000      0.0020      0.0000      0.0000      0.0000      0.0000
  4      0.0000      0.0108      0.0000      0.0000      0.0000      0.0000      0.0000      0.0000      0.0000
  5      0.0000      0.0071      0.0000      0.0000      0.0000      0.0000      0.0000      0.0000      0.0000
  6      0.0000      0.0062      0.0000      0.0000      0.0000      0.0000      0.0000      0.0000      0.0180
  7      0.0000      0.0020      0.0000      0.0000      0.0000      0.0000      0.0000      0.0000      0.0000
  8      0.0000      0.0014      0.0000      0.0000      0.0000      0.0000      0.0000      0.0000      0.0000
  9      0.0000      0.0002      0.0000      0.0000      0.0000      0.0000      0.0000      0.0000      0.0000
 10      0.0000      0.0017      0.0000      0.0000      0.0000      0.0000      0.0000      0.0000      0.0000
 11      0.0000      0.0024      0.0000      0.0000      0.0000      0.0000      0.0000      0.0000      0.0000
 12      0.0000      0.0065      0.0090      0.0000      0.0000      0.0000      0.0000      0.0000      0.0000
 13      0.0000      0.0098      0.0000      0.0000      0.0000      0.0000      0.0000      0.0532      0.0000
 14      0.0000      0.0215      0.0000      0.0000      0.0000      0.0194      0.0000      0.0000      0.0000
 15      0.0000      0.0160      0.1792      0.0000      0.0000      0.0000      0.0000      0.0000      0.0237
 16      0.0000      0.0918      0.0000      0.0000      0.0000      0.0000      0.0000      0.2331      0.0000
 17     19.6763     13.6660     14.0682     13.7638     15.1593     13.8048     13.7729     14.7780     13.8125
 18      0.0000      0.0119      0.0000      0.0000      0.0000      0.0000      0.0000      0.0000      0.0000
 19      0.0000      0.0265      0.0000      0.0000      0.0000      0.0301      0.0000      0.0000      0.0000
 20      0.0000      0.0351      0.0000      0.0000      0.0000      0.0000      0.0000      0.0311      0.0000
 21      0.0000      0.0056      0.0000      0.0000      0.0000      0.0000      0.0000      0.0000      0.0000
 22      0.0000      0.0013      0.0000      0.0000      0.0000      0.0000      0.0000      0.0000      0.0000
 23      0.0000      0.0012      0.0000      0.0000      0.0000      0.0000      0.0000      0.0000      0.0000
 24      0.0000      0.0014      0.0000      0.0000      0.0000      0.0000      0.0000      0.0000      0.0000
 25      0.0000      0.0015      0.0000      0.0000      0.0000      0.0000      0.0000      0.0000      0.0000
 26      0.0000      0.0069      0.0000      0.0000      0.0282      0.0000      0.0000      0.0000      0.0000
 27      0.0000      0.0082      0.0000      0.0000      0.0000      0.0000      0.0000      0.0000      0.0000
 28      0.0000      0.0406      0.0000      0.0000      0.0865      0.0000      0.0811      0.0000      0.0000
 29      0.8639      0.6617      0.7931      0.6112      0.5030      0.7079      0.7478      0.5491      0.7325
 30      1.0159      1.0402      1.0281      1.0432      1.0416      1.0504      0.8684      1.2579      1.1247
 31      0.0000      0.1165      0.0333      0.0000      0.0090      0.0000      0.0000      0.0000      0.0000
 32      0.0000      0.1599      0.0000      0.0000      0.0000      0.0049      0.0000      0.0000      0.0000
 33      0.0000      0.0430      0.0000      0.0000      0.0000      0.0000      0.0000      0.0000      0.0144
 34      0.0000      0.0161      0.0000      0.0000      0.0000      0.0000      0.0064      0.0000      0.0000
 35      0.0000      0.0087      0.0000      0.0000      0.0000      0.0000      0.0000      0.0000      0.0000
 36      0.0000      0.0014      0.0000      0.0000      0.0000      0.0000      0.0000      0.0000      0.0000
 37      0.0000      0.0013      0.0000      0.0000      0.0000      0.0000      0.0000      0.0000      0.0000
 38      0.0000      0.0011      0.0000      0.0000      0.0000      0.0000      0.0000      0.0000      0.0000
 39      0.0000      0.0009      0.0000      0.0000      0.0000      0.0000      0.0000      0.0000      0.0000
 40      0.0000      0.0031      0.0000      0.0000      0.0000      0.0000      0.0000      0.0000      0.0000
 41      0.0000      0.0112      0.0000      0.0000      0.0000      0.0000      0.0000      0.0000      0.0000
 42      0.0000      0.0550      0.2171      0.0352      0.0551      0.0871      0.0000      0.0000      0.0000
 43      0.0000      0.0313      0.0000      0.2906      0.0000      0.0210      0.0000      0.0000      0.0000
 44      1.8876      1.0177      1.3000      0.8790      1.0033      1.2448      1.1267      1.0539      0.9919
 45      0.0000      0.4821      0.1680      0.5326      0.6414      0.2939      0.6608      0.5409      0.4993

# j      m_j: min, <> & last-chain-values for 1 ...  7 chains
  1  2.9441E+00  3.5102E+00  3.4837E+00  3.5551E+00  3.3883E+00  3.5102E+00  3.2604E+00  3.3052E+00  3.4690E+00
  2  0.0000E+00  5.7872E-05  0.0000E+00  0.0000E+00  0.0000E+00  0.0000E+00  0.0000E+00  0.0000E+00  0.0000E+00
  3  0.0000E+00  4.3641E-04  0.0000E+00  0.0000E+00  3.3008E-05  0.0000E+00  0.0000E+00  0.0000E+00  0.0000E+00
  4  0.0000E+00  3.4389E-04  0.0000E+00  0.0000E+00  0.0000E+00  0.0000E+00  0.0000E+00  0.0000E+00  0.0000E+00
  5  0.0000E+00  5.2371E-04  0.0000E+00  0.0000E+00  0.0000E+00  0.0000E+00  0.0000E+00  0.0000E+00  0.0000E+00
  6  0.0000E+00  6.3101E-04  0.0000E+00  0.0000E+00  0.0000E+00  0.0000E+00  0.0000E+00  0.0000E+00  1.8057E-03
  7  0.0000E+00  2.8248E-04  0.0000E+00  0.0000E+00  0.0000E+00  0.0000E+00  0.0000E+00  0.0000E+00  0.0000E+00
  8  0.0000E+00  3.9622E-04  0.0000E+00  0.0000E+00  0.0000E+00  0.0000E+00  0.0000E+00  0.0000E+00  0.0000E+00
  9  0.0000E+00  1.3658E-04  0.0000E+00  0.0000E+00  0.0000E+00  0.0000E+00  0.0000E+00  0.0000E+00  0.0000E+00
 10  0.0000E+00  1.3101E-03  0.0000E+00  0.0000E+00  0.0000E+00  0.0000E+00  0.0000E+00  0.0000E+00  0.0000E+00
 11  0.0000E+00  3.2201E-03  0.0000E+00  0.0000E+00  0.0000E+00  0.0000E+00  0.0000E+00  0.0000E+00  0.0000E+00
 12  0.0000E+00  1.6427E-02  2.2565E-02  0.0000E+00  0.0000E+00  0.0000E+00  0.0000E+00  0.0000E+00  0.0000E+00
 13  0.0000E+00  4.9373E-02  0.0000E+00  0.0000E+00  0.0000E+00  0.0000E+00  0.0000E+00  2.5513E-01  0.0000E+00
 14  0.0000E+00  2.2058E-01  0.0000E+00  0.0000E+00  0.0000E+00  1.9918E-01  0.0000E+00  0.0000E+00  0.0000E+00
 15  0.0000E+00  1.9036E-01  2.1221E+00  0.0000E+00  0.0000E+00  0.0000E+00  0.0000E+00  0.0000E+00  2.7807E-01
 16  0.0000E+00  2.1003E-03  0.0000E+00  0.0000E+00  0.0000E+00  0.0000E+00  0.0000E+00  5.0730E-03  0.0000E+00
 17  2.1002E-01  1.6259E-01  1.6640E-01  1.6490E-01  1.7577E-01  1.6360E-01  1.5158E-01  1.6722E-01  1.6158E-01
 18  0.0000E+00  1.5689E-04  0.0000E+00  0.0000E+00  0.0000E+00  0.0000E+00  0.0000E+00  0.0000E+00  0.0000E+00
 19  0.0000E+00  1.0445E-03  0.0000E+00  0.0000E+00  0.0000E+00  1.1833E-03  0.0000E+00  0.0000E+00  0.0000E+00
 20  0.0000E+00  3.0728E-03  0.0000E+00  0.0000E+00  0.0000E+00  0.0000E+00  0.0000E+00  2.5902E-03  0.0000E+00
 21  0.0000E+00  5.8639E-04  0.0000E+00  0.0000E+00  0.0000E+00  0.0000E+00  0.0000E+00  0.0000E+00  0.0000E+00
 22  0.0000E+00  2.2737E-04  0.0000E+00  0.0000E+00  0.0000E+00  0.0000E+00  0.0000E+00  0.0000E+00  0.0000E+00
 23  0.0000E+00  4.2020E-04  0.0000E+00  0.0000E+00  0.0000E+00  0.0000E+00  0.0000E+00  0.0000E+00  0.0000E+00
 24  0.0000E+00  1.1018E-03  0.0000E+00  0.0000E+00  0.0000E+00  0.0000E+00  0.0000E+00  0.0000E+00  0.0000E+00
 25  0.0000E+00  1.8328E-03  0.0000E+00  0.0000E+00  0.0000E+00  0.0000E+00  0.0000E+00  0.0000E+00  0.0000E+00
 26  0.0000E+00  1.5821E-02  0.0000E+00  0.0000E+00  6.2720E-02  0.0000E+00  0.0000E+00  0.0000E+00  0.0000E+00
 27  0.0000E+00  3.8192E-02  0.0000E+00  0.0000E+00  0.0000E+00  0.0000E+00  0.0000E+00  0.0000E+00  0.0000E+00
 28  0.0000E+00  3.8142E-01  0.0000E+00  0.0000E+00  7.9177E-01  0.0000E+00  7.0438E-01  0.0000E+00  0.0000E+00
 29  1.5402E+01  1.3149E+01  1.5669E+01  1.2231E+01  9.7412E+00  1.4013E+01  1.3746E+01  1.0378E+01  1.4312E+01
 30  2.1607E+01  2.4661E+01  2.4233E+01  2.4906E+01  2.4068E+01  2.4806E+01  1.9044E+01  2.8363E+01  2.6219E+01
 31  0.0000E+00  1.9995E-03  5.6776E-04  0.0000E+00  1.5107E-04  0.0000E+00  0.0000E+00  0.0000E+00  0.0000E+00
 32  0.0000E+00  1.4469E-03  0.0000E+00  0.0000E+00  0.0000E+00  4.4146E-05  0.0000E+00  0.0000E+00  0.0000E+00
 33  0.0000E+00  5.7799E-04  0.0000E+00  0.0000E+00  0.0000E+00  0.0000E+00  0.0000E+00  0.0000E+00  1.8995E-04
