###################################################################
## OUTPUT of StarlightChains_v04.for    [Cid@UFSC - 01/Apr/2007] ##
###################################################################

## Some input info
M33_LS3_20211119f_2.spec                 [arq_obs]
Base.BC03.N                              [arq_base]
Mask.EmLines_CHAOS_focusbluefit.gm       [arq_masks]
StCv04.C11.config                        [arq_config]
   45                                    [N_base]
    0                                    [N_YAV_components = # of components with extra extinction!]
    0                                    [i_FitPowerLaw (1/0 = Yes/No)]
-9.99                                    [alpha_PowerLaw]
CCM                                      [red_law_option]
 1.458241                                [q_norm = A(l_norm)/A(V)]

## (Re)Sampling Parameters
 3100.00                                 [l_ini (A)]
 5300.00                                 [l_fin (A)]
    1.00                                 [dl    (A)]     (OBS: dl_cushion =    50.00 A)

## Normalization info
 4020.00                                 [l_norm (A) - for base]
 4010.00                                 [llow_norm (A) - window for f_obs]
 4060.00                                 [lupp_norm (A) - window for f_obs]
5.510213E-16                             [fobs_norm (in input units)]

## S/N
 4730.00                                 [llow_SN (A) - window for S/N]
 4780.00                                 [lupp_SN (A) - window for S/N]
  26.266                                 [S/N in S/N window]
  34.374                                 [S/N in norm. window]
  19.035                                 [S/N_err in S/N window]
  24.911                                 [S/N_err in norm. window]
  1.0000                                 [fscale_chi2]

## etc...
    -2007203                             [idum_orig]
  1493                                   [NOl_eff]
  1448                                   [Nl_eff]
    45    NSIGMA                         [Ntot_cliped & clip_method]
   545580                                [Nglobal_steps]
   7                                     [N_chains]
   6                                     [NEX0s_base = N_base in EX0s-fits]
 0   0   1        2   2.0   3.343E+01    [Clip-Bug, RC-Crash & Burn-In warning-flags, n_censored_weights, wei_nsig_threshold & wei_limit]
    11      5.516      5.487      0.029  [idt_all, wdt_TotTime, wdt_UsrTime & wdt_SysTime (sec)]

## Synthesis Results - Best model ##

 1.21882E+00                             [chi2/Nl_eff]
     5.52867                             [adev (%)]

   103.48779                             [sum-of-x (%)]
 1.57178E-15                             [Flux_tot (units of input spectrum!)]
 2.04771E-11                             [Mini_tot (???)]
 1.03752E-11                             [Mcor_tot (???)]

 120.16                                  [v0_min  (km/s)]
  77.61                                  [vd_min  (km/s)]
 0.7549                                  [AV_min  (mag)]
 0.0000                                  [YAV_min (mag)]

# j     x_j(%)      Mini_j(%)     Mcor_j(%)     age_j(yr)     Z_j      (L/M)_j    YAV?  Mstars   component_j        a/Fe...       SSP_chi2r SSP_adev(%)   SSP_AV   SSP_x(%)
  1     70.8784     4.7191E-01    9.3140E-01    1.000000E+06  0.00400  1.114E-02    0   1.0000   age020_m42            0.0000     1.5157E+00     6.0611   1.4524   103.1445
  2      0.0000     0.0000E+00    0.0000E+00    3.160000E+06  0.00400  4.073E-02    0   0.9999   age045_m42            0.0000     5.2872E+00    11.6290   0.4047   117.2054
  3      0.0000     0.0000E+00    0.0000E+00    5.010000E+06  0.00400  2.534E-02    0   0.9488   age055_m42            0.0000     3.1263E+00     8.8707   0.8500   111.1503
  4      0.0000     0.0000E+00    0.0000E+00    1.000000E+07  0.00400  1.271E-02    0   0.8862   age070_m42            0.0000     3.9770E+00     9.8827   0.1817   114.1567
  5      0.0000     0.0000E+00    0.0000E+00    2.512000E+07  0.00400  5.070E-03    0   0.8174   age090_m42            0.0000     4.3144E+00    10.3986   0.0304   115.9517
  6      0.0000     0.0000E+00    0.0000E+00    4.000000E+07  0.00400  3.505E-03    0   0.7851   age104_m42            0.0000     5.2440E+00    11.7224  -0.3241   118.6221
  7      0.0000     0.0000E+00    0.0000E+00    1.015200E+08  0.00400  2.268E-03    0   0.7207   age116_m42            0.0000     1.5737E+01    20.7944  -0.4953   126.1288
  8      0.0000     0.0000E+00    0.0000E+00    2.861200E+08  0.00400  1.079E-03    0   0.6613   age125_m42            0.0000     1.8649E+01    23.2458  -1.0000   128.1262
  9      0.0000     0.0000E+00    0.0000E+00    6.405400E+08  0.00400  5.077E-04    0   0.6197   age132_m42            0.0000     2.1195E+01    23.5921  -1.0000   126.2009
 10      0.0000     0.0000E+00    0.0000E+00    9.047900E+08  0.00400  3.535E-04    0   0.6024   age135_m42            0.0000     2.0429E+01    22.8173  -1.0000   121.6485
 11      0.0000     0.0000E+00    0.0000E+00    1.434000E+09  0.00400  1.910E-04    0   0.5716   age139_m42            0.0000     2.2917E+01    24.3366  -1.0000   110.2426
 12      0.0000     0.0000E+00    0.0000E+00    2.500000E+09  0.00400  9.818E-05    0   0.5463   age150_m42            0.0000     2.5342E+01    26.1758  -1.0000   100.8737
 13      0.0000     0.0000E+00    0.0000E+00    5.000000E+09  0.00400  4.718E-05    0   0.5228   age161_m42            0.0000     2.7941E+01    28.0063  -1.0000    94.9822
 14      0.0000     0.0000E+00    0.0000E+00    1.100000E+10  0.00400  2.205E-05    0   0.4980   age185_m42            0.0000     3.4328E+01    31.5431  -1.0000    87.3798
 15      0.0000     0.0000E+00    0.0000E+00    1.300000E+10  0.00400  1.883E-05    0   0.4927   age193_m42            0.0000     3.4896E+01    31.8413  -1.0000    86.9370
 16      0.0000     0.0000E+00    0.0000E+00    1.000000E+06  0.02000  1.989E-02    0   1.0000   age020_m62            0.0000     1.6251E+00     6.2601   1.4191   103.8734
 17     24.7579     4.8683E-02    9.4719E-02    3.160000E+06  0.02000  3.772E-02    0   0.9858   age045_m62            0.0000     1.8699E+00     6.7694   1.2593   106.5133
 18      0.0000     0.0000E+00    0.0000E+00    5.010000E+06  0.02000  3.227E-02    0   0.9342   age055_m62            0.0000     4.6095E+00    11.1223   0.6563   114.1654
 19      0.0000     0.0000E+00    0.0000E+00    1.000000E+07  0.02000  1.011E-02    0   0.8751   age070_m62            0.0000     2.1809E+00     7.1958   0.3765   110.7964
 20      0.0000     0.0000E+00    0.0000E+00    2.512000E+07  0.02000  4.206E-03    0   0.8099   age090_m62            0.0000     2.6048E+00     8.0267   0.2037   111.4630
 21      0.0000     0.0000E+00    0.0000E+00    4.000000E+07  0.02000  3.373E-03    0   0.7799   age104_m62            0.0000     6.3655E+00    12.8965  -0.1110   119.1853
 22      0.0000     0.0000E+00    0.0000E+00    1.015200E+08  0.02000  1.878E-03    0   0.7221   age116_m62            0.0000     1.4294E+01    19.9259  -0.4219   126.4624
 23      0.0000     0.0000E+00    0.0000E+00    2.861200E+08  0.02000  8.869E-04    0   0.6700   age125_m62            0.0000     2.3426E+01    25.9008  -0.9737   132.4922
 24      0.0000     0.0000E+00    0.0000E+00    6.405400E+08  0.02000  3.657E-04    0   0.6322   age132_m62            0.0000     2.4900E+01    25.3874  -1.0000   123.5760
 25      0.0000     0.0000E+00    0.0000E+00    9.047900E+08  0.02000  2.312E-04    0   0.6152   age135_m62            0.0000     2.5471E+01    25.5776  -1.0000   115.5277
 26      0.0000     0.0000E+00    0.0000E+00    1.434000E+09  0.02000  1.168E-04    0   0.5865   age139_m62            0.0000     2.7658E+01    27.4628  -1.0000   102.5014
 27      0.0000     0.0000E+00    0.0000E+00    2.500000E+09  0.02000  5.505E-05    0   0.5610   age150_m62            0.0000     3.4494E+01    31.3767  -1.0000    91.9412
 28      0.0000     0.0000E+00    0.0000E+00    5.000000E+09  0.02000  2.596E-05    0   0.5353   age161_m62            0.0000     4.3290E+01    35.4567  -1.0000    84.1122
 29      0.0022     1.4271E-02    1.4373E-02    1.100000E+10  0.02000  1.169E-05    0   0.5103   age185_m62            0.0000     5.3074E+01    39.3574  -1.0000    77.0278
 30      0.0000     0.0000E+00    0.0000E+00    1.300000E+10  0.02000  9.691E-06    0   0.5047   age193_m62            0.0000     5.4450E+01    39.8655  -1.0000    76.2056
 31      0.0000     0.0000E+00    0.0000E+00    1.000000E+06  0.05000  2.651E-02    0   0.9998   age020_m72            0.0000     1.6875E+00     6.3710   1.3926   104.7766
 32      0.0000     0.0000E+00    0.0000E+00    3.160000E+06  0.05000  4.817E-02    0   0.9577   age045_m72            0.0000     2.7805E+00     8.4788   1.0346   110.4265
 33      0.0000     0.0000E+00    0.0000E+00    5.010000E+06  0.05000  3.101E-02    0   0.9147   age055_m72            0.0000     3.0194E+00     8.7456   0.7441   112.6596
 34      0.0000     0.0000E+00    0.0000E+00    1.000000E+07  0.05000  8.954E-03    0   0.8524   age070_m72            0.0000     2.9110E+00     8.4604   0.9194   111.5147
 35      0.0000     0.0000E+00    0.0000E+00    2.512000E+07  0.05000  4.207E-03    0   0.7902   age090_m72            0.0000     5.1875E+00    11.7825   0.4463   116.8697
 36      0.0000     0.0000E+00    0.0000E+00    4.000000E+07  0.05000  3.198E-03    0   0.7618   age104_m72            0.0000     1.0399E+01    16.5359  -0.0668   122.8588
 37      0.0000     0.0000E+00    0.0000E+00    1.015200E+08  0.05000  1.716E-03    0   0.7092   age116_m72            0.0000     1.6519E+01    21.7228  -0.3576   126.6812
 38      0.0000     0.0000E+00    0.0000E+00    2.861200E+08  0.05000  7.047E-04    0   0.6618   age125_m72            0.0000     2.4401E+01    25.9252  -1.0000   129.5928
 39      0.0000     0.0000E+00    0.0000E+00    6.405400E+08  0.05000  2.633E-04    0   0.6253   age132_m72            0.0000     2.7366E+01    26.3765  -1.0000   115.2630
 40      0.0000     0.0000E+00    0.0000E+00    9.047900E+08  0.05000  1.484E-04    0   0.6088   age135_m72            0.0000     3.1013E+01    28.8317  -1.0000   100.8055
 41      0.0000     0.0000E+00    0.0000E+00    1.434000E+09  0.05000  7.827E-05    0   0.5847   age139_m72            0.0000     3.8396E+01    33.0264  -1.0000    89.4076
 42      0.0000     0.0000E+00    0.0000E+00    2.500000E+09  0.05000  3.759E-05    0   0.5583   age150_m72            0.0000     4.5912E+01    36.5546  -1.0000    81.9404
 43      0.0000     0.0000E+00    0.0000E+00    5.000000E+09  0.05000  1.548E-05    0   0.5320   age161_m72            0.0000     5.5332E+01    40.2176  -1.0000    73.5062
 44      3.8697     4.3940E+01    4.3968E+01    1.100000E+10  0.05000  6.532E-06    0   0.5070   age185_m72            0.0000     6.5710E+01    43.7914  -1.0000    65.4709
 45      3.9796     5.5525E+01    5.4991E+01    1.300000E+10  0.05000  5.316E-06    0   0.5018   age193_m72            0.0000     6.9163E+01    44.8737  -1.0000    63.0947


## Synthesis Results - Average & Chains ##

# j      x_j: min, <> & last-chain-values for 1 ...  7 chains
  1     70.8784     66.8870     69.0706     72.2260     67.6025     68.0764     70.4427     66.6653     69.9310
  2      0.0000      0.0281      0.0000      0.0000      0.0000      0.0000      0.0000      0.0000      0.0000
  3      0.0000      0.0911      0.0398      0.0000      0.0000      0.0000      0.0000      0.0000      0.0000
  4      0.0000      0.0246      0.0000      0.0000      0.0000      0.0000      0.0000      0.0000      0.0000
  5      0.0000      0.0292      0.0108      0.0000      0.0000      0.0000      0.0000      0.0000      0.0000
  6      0.0000      0.0244      0.0000      0.0000      0.0000      0.0000      0.0000      0.0000      0.0000
  7      0.0000      0.0057      0.0000      0.0000      0.0000      0.0000      0.0000      0.0000      0.0000
  8      0.0000      0.0064      0.0000      0.0000      0.0000      0.0000      0.0000      0.0000      0.0000
  9      0.0000      0.0054      0.0000      0.0000      0.0000      0.0000      0.0000      0.0000      0.0000
 10      0.0000      0.0061      0.0000      0.0000      0.0000      0.0000      0.0000      0.0000      0.0000
 11      0.0000      0.0133      0.0000      0.0000      0.0444      0.0000      0.1087      0.0000      0.0000
 12      0.0000      0.0340      0.0000      0.0000      0.0152      0.0000      0.0000      0.0000      0.0000
 13      0.0000      0.0263      0.0000      0.0000      0.0000      0.0000      0.0558      0.0000      0.0000
 14      0.0000      0.0464      0.0027      0.0000      0.0000      0.0000      0.0190      0.0562      0.0000
 15      0.0000      0.1020      0.0000      0.0000      0.0000      0.0000      0.0000      0.0559      0.0000
 16      0.0000      1.3466      0.0000      0.0000      1.2203      0.0000      1.2937      0.0000      0.0000
 17     24.7579     24.3496     24.9797     22.2181     25.4721     26.5023     22.2631     28.1560     23.4773
 18      0.0000      0.0438      0.0000      0.0000      0.0000      0.0000      0.0000      0.0000      0.0000
 19      0.0000      0.1237      0.0000      0.0000      0.0000      0.0000      0.0000      0.0000      0.0541
 20      0.0000      0.1639      0.0000      0.0000      0.0000      0.0000      0.0000      0.0000      0.0000
 21      0.0000      0.0142      0.0000      0.0000      0.0000      0.0000      0.0000      0.0000      0.0000
 22      0.0000      0.0068      0.0000      0.0000      0.0000      0.0000      0.0000      0.0000      0.0000
 23      0.0000      0.0112      0.0000      0.0000      0.0000      0.0000      0.0000      0.0000      0.0000
 24      0.0000      0.0048      0.0000      0.0000      0.0000      0.0000      0.0000      0.0000      0.0000
 25      0.0000      0.0095      0.0000      0.0000      0.0000      0.0000      0.0000      0.0000      0.0000
 26      0.0000      0.0382      0.2657      0.0000      0.0000      0.0000      0.1190      0.0000      0.0000
 27      0.0000      0.0567      0.0000      0.0000      0.0000      0.0000      0.0000      0.0000      0.0000
 28      0.0000      0.1395      0.0000      0.0000      0.0000      0.3937      0.0361      0.3713      0.0705
 29      0.0022      1.2637      1.1429      1.4429      1.2321      0.3553      1.3586      0.8733      1.4764
 30      0.0000      0.4877      0.8034      0.9264      0.0000      0.2118      0.6529      0.0639      0.0000
 31      0.0000      0.8795      0.0000      0.0000      0.3619      0.1475      0.3579      0.0000      0.8457
 32      0.0000      0.3714      0.0000      0.0000      0.3259      0.0000      0.0000      0.0000      0.0000
 33      0.0000      0.0998      0.0000      0.0000      0.0000      0.2568      0.0000      0.0000      0.0000
 34      0.0000      0.0852      0.0000      0.0000      0.0000      0.0000      0.0000      0.0000      0.0000
 35      0.0000      0.0336      0.0000      0.0000      0.0000      0.0000      0.0000      0.0000      0.0290
 36      0.0000      0.0093      0.0000      0.0000      0.0000      0.0000      0.0000      0.0000      0.0000
 37      0.0000      0.0061      0.0000      0.0000      0.0000      0.0000      0.0000      0.0000      0.0000
 38      0.0000      0.0057      0.0000      0.0000      0.0000      0.0000      0.0000      0.0000      0.0000
 39      0.0000      0.0083      0.0000      0.0000      0.0000      0.0000      0.0000      0.0000      0.0000
 40      0.0000      0.0119      0.0000      0.0000      0.0000      0.0000      0.0000      0.0000      0.0000
 41      0.0000      0.0318      0.0000      0.0000      0.0000      0.0000      0.0000      0.0000      0.0870
 42      0.0000      1.8408      1.6363      2.1703      1.9727      2.2660      1.9331      2.1276      1.9657
 43      0.0000      0.0394      0.0000      0.0000      0.0000      0.0288      0.0000      0.0710      0.0790
 44      3.8697      3.8270      3.9619      3.5370      3.9525      4.0802      3.5073      4.0247      4.2809
 45      3.9796      1.2956      1.6594      1.2917      1.7040      1.4945      1.6430      1.5437      1.4104

# j      m_j: min, <> & last-chain-values for 1 ...  7 chains
  1  9.3140E-01  1.1043E+00  1.0537E+00  1.1853E+00  1.0880E+00  1.1446E+00  1.1311E+00  1.0866E+00  1.0998E+00
  2  0.0000E+00  1.2685E-04  0.0000E+00  0.0000E+00  0.0000E+00  0.0000E+00  0.0000E+00  0.0000E+00  0.0000E+00
  3  0.0000E+00  6.2705E-04  2.5298E-04  0.0000E+00  0.0000E+00  0.0000E+00  0.0000E+00  0.0000E+00  0.0000E+00
  4  0.0000E+00  3.1524E-04  0.0000E+00  0.0000E+00  0.0000E+00  0.0000E+00  0.0000E+00  0.0000E+00  0.0000E+00
  5  0.0000E+00  8.6570E-04  2.9589E-04  0.0000E+00  0.0000E+00  0.0000E+00  0.0000E+00  0.0000E+00  0.0000E+00
  6  0.0000E+00  1.0062E-03  0.0000E+00  0.0000E+00  0.0000E+00  0.0000E+00  0.0000E+00  0.0000E+00  0.0000E+00
  7  0.0000E+00  3.3241E-04  0.0000E+00  0.0000E+00  0.0000E+00  0.0000E+00  0.0000E+00  0.0000E+00  0.0000E+00
  8  0.0000E+00  7.2252E-04  0.0000E+00  0.0000E+00  0.0000E+00  0.0000E+00  0.0000E+00  0.0000E+00  0.0000E+00
  9  0.0000E+00  1.2088E-03  0.0000E+00  0.0000E+00  0.0000E+00  0.0000E+00  0.0000E+00  0.0000E+00  0.0000E+00
 10  0.0000E+00  1.9245E-03  0.0000E+00  0.0000E+00  0.0000E+00  0.0000E+00  0.0000E+00  0.0000E+00  0.0000E+00
 11  0.0000E+00  7.3422E-03  0.0000E+00  0.0000E+00  2.3838E-02  0.0000E+00  5.8190E-02  0.0000E+00  0.0000E+00
 12  0.0000E+00  3.4763E-02  0.0000E+00  0.0000E+00  1.5117E-02  0.0000E+00  0.0000E+00  0.0000E+00  0.0000E+00
 13  0.0000E+00  5.3621E-02  0.0000E+00  0.0000E+00  0.0000E+00  0.0000E+00  1.1058E-01  0.0000E+00  0.0000E+00
 14  0.0000E+00  1.9263E-01  1.0260E-02  0.0000E+00  0.0000E+00  0.0000E+00  7.6893E-02  2.3058E-01  0.0000E+00
 15  0.0000E+00  4.9069E-01  0.0000E+00  0.0000E+00  0.0000E+00  0.0000E+00  0.0000E+00  2.6563E-01  0.0000E+00
 16  0.0000E+00  1.2452E-02  0.0000E+00  0.0000E+00  1.1000E-02  0.0000E+00  1.1634E-02  0.0000E+00  0.0000E+00
 17  9.4719E-02  1.1705E-01  1.1094E-01  1.0615E-01  1.1935E-01  1.2973E-01  1.0408E-01  1.3362E-01  1.0749E-01
 18  0.0000E+00  2.3323E-04  0.0000E+00  0.0000E+00  0.0000E+00  0.0000E+00  0.0000E+00  0.0000E+00  0.0000E+00
 19  0.0000E+00  1.9700E-03  0.0000E+00  0.0000E+00  0.0000E+00  0.0000E+00  0.0000E+00  0.0000E+00  8.2004E-04
 20  0.0000E+00  5.8040E-03  0.0000E+00  0.0000E+00  0.0000E+00  0.0000E+00  0.0000E+00  0.0000E+00  0.0000E+00
 21  0.0000E+00  6.0271E-04  0.0000E+00  0.0000E+00  0.0000E+00  0.0000E+00  0.0000E+00  0.0000E+00  0.0000E+00
 22  0.0000E+00  4.8033E-04  0.0000E+00  0.0000E+00  0.0000E+00  0.0000E+00  0.0000E+00  0.0000E+00  0.0000E+00
 23  0.0000E+00  1.5513E-03  0.0000E+00  0.0000E+00  0.0000E+00  0.0000E+00  0.0000E+00  0.0000E+00  0.0000E+00
 24  0.0000E+00  1.5154E-03  0.0000E+00  0.0000E+00  0.0000E+00  0.0000E+00  0.0000E+00  0.0000E+00  0.0000E+00
 25  0.0000E+00  4.6532E-03  0.0000E+00  0.0000E+00  0.0000E+00  0.0000E+00  0.0000E+00  0.0000E+00  0.0000E+00
 26  0.0000E+00  3.5304E-02  2.2675E-01  0.0000E+00  0.0000E+00  0.0000E+00  1.0687E-01  0.0000E+00  0.0000E+00
 27  0.0000E+00  1.0622E-01  0.0000E+00  0.0000E+00  0.0000E+00  0.0000E+00  0.0000E+00  0.0000E+00  0.0000E+00
 28  0.0000E+00  5.2911E-01  0.0000E+00  0.0000E+00  0.0000E+00  1.5207E+00  1.3318E-01  1.3901E+00  2.5470E-01
 29  1.4373E-02  1.0146E+01  8.4783E+00  1.1515E+01  9.6429E+00  2.9052E+00  1.0609E+01  6.9227E+00  1.1291E+01
 30  0.0000E+00  4.6714E+00  7.1105E+00  8.8201E+00  0.0000E+00  2.0658E+00  6.0825E+00  6.0457E-01  0.0000E+00
 31  0.0000E+00  6.1010E-03  0.0000E+00  0.0000E+00  2.4473E-03  1.0418E-03  2.4148E-03  0.0000E+00  5.5878E-03
 32  0.0000E+00  1.3580E-03  0.0000E+00  0.0000E+00  1.1618E-03  0.0000E+00  0.0000E+00  0.0000E+00  0.0000E+00
 33  0.0000E+00  5.4124E-04  0.0000E+00  0.0000E+00  0.0000E+00  1.4188E-03  0.0000E+00  0.0000E+00  0.0000E+00
