###################################################################
## OUTPUT of StarlightChains_v04.for    [Cid@UFSC - 01/Apr/2007] ##
###################################################################

## Some input info
M33_LS1_20220501f_1.spec                 [arq_obs]
Base.BC03.N                              [arq_base]
Mask.EmLines_CHAOS_focusbluefit.gm       [arq_masks]
StCv04.C11.config                        [arq_config]
   45                                    [N_base]
    0                                    [N_YAV_components = # of components with extra extinction!]
    0                                    [i_FitPowerLaw (1/0 = Yes/No)]
-9.99                                    [alpha_PowerLaw]
CCM                                      [red_law_option]
 1.458241                                [q_norm = A(l_norm)/A(V)]

## (Re)Sampling Parameters
 3100.00                                 [l_ini (A)]
 5300.00                                 [l_fin (A)]
    1.00                                 [dl    (A)]     (OBS: dl_cushion =    50.00 A)

## Normalization info
 4020.00                                 [l_norm (A) - for base]
 4010.00                                 [llow_norm (A) - window for f_obs]
 4060.00                                 [lupp_norm (A) - window for f_obs]
6.445266E-17                             [fobs_norm (in input units)]

## S/N
 4730.00                                 [llow_SN (A) - window for S/N]
 4780.00                                 [lupp_SN (A) - window for S/N]
  35.967                                 [S/N in S/N window]
  48.331                                 [S/N in norm. window]
  15.376                                 [S/N_err in S/N window]
  20.662                                 [S/N_err in norm. window]
  1.0000                                 [fscale_chi2]

## etc...
    -2007201                             [idum_orig]
  1493                                   [NOl_eff]
   915                                   [Nl_eff]
   578    NSIGMA                         [Ntot_cliped & clip_method]
   200480                                [Nglobal_steps]
   7                                     [N_chains]
   5                                     [NEX0s_base = N_base in EX0s-fits]
 0   0   1        0   2.0   2.748E+01    [Clip-Bug, RC-Crash & Burn-In warning-flags, n_censored_weights, wei_nsig_threshold & wei_limit]
     4      4.208      4.196      0.012  [idt_all, wdt_TotTime, wdt_UsrTime & wdt_SysTime (sec)]

## Synthesis Results - Best model ##

 2.12893E+00                             [chi2/Nl_eff]
     8.09893                             [adev (%)]

   122.89736                             [sum-of-x (%)]
 2.06770E-17                             [Flux_tot (units of input spectrum!)]
 8.65860E-13                             [Mini_tot (???)]
 4.35208E-13                             [Mcor_tot (???)]

 -34.25                                  [v0_min  (km/s)]
 290.10                                  [vd_min  (km/s)]
-1.0000                                  [AV_min  (mag)]
 0.0000                                  [YAV_min (mag)]

# j     x_j(%)      Mini_j(%)     Mcor_j(%)     age_j(yr)     Z_j      (L/M)_j    YAV?  Mstars   component_j        a/Fe...       SSP_chi2r SSP_adev(%)   SSP_AV   SSP_x(%)
  1     95.5847     1.6672E-01    3.3170E-01    1.000000E+06  0.00400  1.114E-02    0   1.0000   age020_m42            0.0000     4.5619E+00    12.6135   0.7130   121.8838
  2      0.0000     0.0000E+00    0.0000E+00    3.160000E+06  0.00400  4.073E-02    0   0.9999   age045_m42            0.0000     8.9388E+00    17.8570  -0.2071   134.9676
  3      0.0000     0.0000E+00    0.0000E+00    5.010000E+06  0.00400  2.534E-02    0   0.9488   age055_m42            0.0000     7.3035E+00    16.0768   0.1812   129.3173
  4      0.0000     0.0000E+00    0.0000E+00    1.000000E+07  0.00400  1.271E-02    0   0.8862   age070_m42            0.0000     7.6000E+00    16.3396  -0.4487   131.8459
  5      0.0000     0.0000E+00    0.0000E+00    2.512000E+07  0.00400  5.070E-03    0   0.8174   age090_m42            0.0000     8.0856E+00    16.9625  -0.6044   134.1024
  6      0.0000     0.0000E+00    0.0000E+00    4.000000E+07  0.00400  3.505E-03    0   0.7851   age104_m42            0.0000     9.1981E+00    18.2990  -0.9636   137.4155
  7      0.0000     0.0000E+00    0.0000E+00    1.015200E+08  0.00400  2.268E-03    0   0.7207   age116_m42            0.0000     1.6106E+01    23.9291  -0.9381   141.0982
  8      0.0000     0.0000E+00    0.0000E+00    2.861200E+08  0.00400  1.079E-03    0   0.6613   age125_m42            0.0000     1.9687E+01    24.7041  -1.0000   134.8319
  9      0.0000     0.0000E+00    0.0000E+00    6.405400E+08  0.00400  5.077E-04    0   0.6197   age132_m42            0.0000     2.1609E+01    24.5731  -1.0000   131.8305
 10      0.0000     0.0000E+00    0.0000E+00    9.047900E+08  0.00400  3.535E-04    0   0.6024   age135_m42            0.0000     2.2336E+01    24.8630  -1.0000   126.0870
 11      0.0000     0.0000E+00    0.0000E+00    1.434000E+09  0.00400  1.910E-04    0   0.5716   age139_m42            0.0000     2.5741E+01    27.9851  -1.0000   112.3167
 12      0.0000     0.0000E+00    0.0000E+00    2.500000E+09  0.00400  9.818E-05    0   0.5463   age150_m42            0.0000     2.9141E+01    30.5473  -1.0000   101.5425
 13      0.0000     0.0000E+00    0.0000E+00    5.000000E+09  0.00400  4.718E-05    0   0.5228   age161_m42            0.0000     3.1879E+01    32.4613  -1.0000    94.9774
 14      0.0000     0.0000E+00    0.0000E+00    1.100000E+10  0.00400  2.205E-05    0   0.4980   age185_m42            0.0000     3.6801E+01    35.2742  -1.0000    86.6727
 15      0.0000     0.0000E+00    0.0000E+00    1.300000E+10  0.00400  1.883E-05    0   0.4927   age193_m42            0.0000     3.7316E+01    35.5124  -1.0000    86.1873
 16      0.0000     0.0000E+00    0.0000E+00    1.000000E+06  0.02000  1.989E-02    0   1.0000   age020_m62            0.0000     4.6415E+00    12.6728   0.6753   122.9438
 17      0.0000     0.0000E+00    0.0000E+00    3.160000E+06  0.02000  3.772E-02    0   0.9858   age045_m62            0.0000     5.8433E+00    14.3602   0.5239   125.7417
 18      0.0000     0.0000E+00    0.0000E+00    5.010000E+06  0.02000  3.227E-02    0   0.9342   age055_m62            0.0000     9.2313E+00    18.0002   0.0522   131.1641
 19      0.0000     0.0000E+00    0.0000E+00    1.000000E+07  0.02000  1.011E-02    0   0.8751   age070_m62            0.0000     5.5494E+00    13.7958  -0.3293   130.1580
 20      0.0000     0.0000E+00    0.0000E+00    2.512000E+07  0.02000  4.206E-03    0   0.8099   age090_m62            0.0000     6.8921E+00    15.6168  -0.5197   131.2236
 21      0.0000     0.0000E+00    0.0000E+00    4.000000E+07  0.02000  3.373E-03    0   0.7799   age104_m62            0.0000     1.0081E+01    19.0661  -0.7129   136.9193
 22      0.0000     0.0000E+00    0.0000E+00    1.015200E+08  0.02000  1.878E-03    0   0.7221   age116_m62            0.0000     1.5693E+01    23.6655  -0.8761   141.5765
 23      0.0000     0.0000E+00    0.0000E+00    2.861200E+08  0.02000  8.869E-04    0   0.6700   age125_m62            0.0000     2.2452E+01    26.7138  -1.0000   139.6818
 24      0.0000     0.0000E+00    0.0000E+00    6.405400E+08  0.02000  3.657E-04    0   0.6322   age132_m62            0.0000     2.5906E+01    27.0697  -1.0000   127.4126
 25      0.0000     0.0000E+00    0.0000E+00    9.047900E+08  0.02000  2.312E-04    0   0.6152   age135_m62            0.0000     2.7500E+01    28.5195  -1.0000   117.6677
 26      0.0000     0.0000E+00    0.0000E+00    1.434000E+09  0.02000  1.168E-04    0   0.5865   age139_m62            0.0000     3.1026E+01    31.2458  -1.0000   102.6855
 27      0.0000     0.0000E+00    0.0000E+00    2.500000E+09  0.02000  5.505E-05    0   0.5610   age150_m62            0.0000     3.6498E+01    34.7439  -1.0000    91.0620
 28      0.0000     0.0000E+00    0.0000E+00    5.000000E+09  0.02000  2.596E-05    0   0.5353   age161_m62            0.0000     4.2689E+01    37.8217  -1.0000    82.6198
 29      0.0000     0.0000E+00    0.0000E+00    1.100000E+10  0.02000  1.169E-05    0   0.5103   age185_m62            0.0000     4.9240E+01    40.6859  -1.0000    75.0924
 30      0.0000     0.0000E+00    0.0000E+00    1.300000E+10  0.02000  9.691E-06    0   0.5047   age193_m62            0.0000     5.0171E+01    41.0426  -1.0000    74.2390
 31      0.0000     0.0000E+00    0.0000E+00    1.000000E+06  0.05000  2.651E-02    0   0.9998   age020_m72            0.0000     4.8141E+00    12.9038   0.6512   123.9567
 32      0.0000     0.0000E+00    0.0000E+00    3.160000E+06  0.05000  4.817E-02    0   0.9577   age045_m72            0.0000     7.5376E+00    16.2289   0.3454   129.0478
 33      0.0000     0.0000E+00    0.0000E+00    5.010000E+06  0.05000  3.101E-02    0   0.9147   age055_m72            0.0000     7.4551E+00    16.1236   0.0652   131.4314
 34      0.0000     0.0000E+00    0.0000E+00    1.000000E+07  0.05000  8.954E-03    0   0.8524   age070_m72            0.0000     7.1199E+00    15.8444   0.2201   130.6001
 35      0.0000     0.0000E+00    0.0000E+00    2.512000E+07  0.05000  4.207E-03    0   0.7902   age090_m72            0.0000     9.8172E+00    18.7763  -0.1864   135.0004
 36      0.0000     0.0000E+00    0.0000E+00    4.000000E+07  0.05000  3.198E-03    0   0.7618   age104_m72            0.0000     1.2505E+01    21.3409  -0.5867   139.0305
 37      0.0000     0.0000E+00    0.0000E+00    1.015200E+08  0.05000  1.716E-03    0   0.7092   age116_m72            0.0000     1.7888E+01    24.9814  -0.7563   140.5628
 38      0.0000     0.0000E+00    0.0000E+00    2.861200E+08  0.05000  7.047E-04    0   0.6618   age125_m72            0.0000     2.3732E+01    26.5890  -1.0000   135.2895
 39      0.0000     0.0000E+00    0.0000E+00    6.405400E+08  0.05000  2.633E-04    0   0.6253   age132_m72            0.0000     2.8301E+01    28.7381  -1.0000   117.5078
 40      0.0000     0.0000E+00    0.0000E+00    9.047900E+08  0.05000  1.484E-04    0   0.6088   age135_m72            0.0000     3.2784E+01    31.9477  -1.0000   101.0294
 41      0.0000     0.0000E+00    0.0000E+00    1.434000E+09  0.05000  7.827E-05    0   0.5847   age139_m72            0.0000     3.8962E+01    35.7596  -1.0000    88.4458
 42      0.0000     0.0000E+00    0.0000E+00    2.500000E+09  0.05000  3.759E-05    0   0.5583   age150_m72            0.0000     4.4686E+01    38.6519  -1.0000    80.3696
 43      0.0000     0.0000E+00    0.0000E+00    5.000000E+09  0.05000  1.548E-05    0   0.5320   age161_m72            0.0000     5.0877E+01    41.3652  -1.0000    71.6425
 44      0.0000     0.0000E+00    0.0000E+00    1.100000E+10  0.05000  6.532E-06    0   0.5070   age185_m72            0.0000     5.7125E+01    43.7500  -1.0000    63.5029
 45     27.3126     9.9833E+01    9.9668E+01    1.300000E+10  0.05000  5.316E-06    0   0.5018   age193_m72            0.0000     5.9160E+01    44.4561  -1.0000    61.1350


## Synthesis Results - Average & Chains ##

# j      x_j: min, <> & last-chain-values for 1 ...  7 chains
  1     95.5847     79.0283     81.1321     82.1292     82.6509     79.9116     81.9999     79.6804     79.3446
  2      0.0000      0.0073      0.0000      0.0000      0.0000      0.0000      0.0000      0.0000      0.0000
  3      0.0000      0.0236      0.0000      0.1188      0.0000      0.0000      0.0000      0.0000      0.0000
  4      0.0000      0.0141      0.0000      0.0000      0.0000      0.0000      0.0000      0.0000      0.0000
  5      0.0000      0.0084      0.0000      0.0000      0.0000      0.0000      0.0000      0.0000      0.0000
  6      0.0000      0.0069      0.0000      0.0000      0.0000      0.0000      0.0000      0.0000      0.0000
  7      0.0000      0.0015      0.0000      0.0000      0.0000      0.0000      0.0000      0.0000      0.0000
  8      0.0000      0.0064      0.0000      0.0000      0.0000      0.0000      0.0000      0.0000      0.0000
  9      0.0000      0.0043      0.0000      0.0000      0.0000      0.0000      0.0000      0.0000      0.0000
 10      0.0000      0.0087      0.0248      0.0000      0.0000      0.0000      0.0000      0.0000      0.0000
 11      0.0000      0.0114      0.0000      0.0000      0.0000      0.0000      0.0000      0.0000      0.0000
 12      0.0000      0.0098      0.0000      0.0000      0.0000      0.0000      0.0000      0.0208      0.0000
 13      0.0000      0.0094      0.0000      0.0000      0.0000      0.0000      0.0000      0.0000      0.0000
 14      0.0000      0.0129      0.0000      0.0000      0.0000      0.0000      0.0000      0.0000      0.0000
 15      0.0000      0.0343      0.0000      0.0000      0.0000      0.0000      0.0000      0.0000      0.0000
 16      0.0000     16.2602     14.9449     13.5683     13.2260     15.7651     12.9463     16.6911     16.7954
 17      0.0000      0.0964      0.0000      0.0000      0.0000      0.0398      0.0000      0.0000      0.0000
 18      0.0000      0.0097      0.0000      0.0000      0.0000      0.0000      0.0000      0.0000      0.0000
 19      0.0000      0.0873      0.0000      0.0000      0.0582      0.0000      0.0000      0.0000      0.0000
 20      0.0000      0.0068      0.0000      0.0000      0.0000      0.0000      0.0000      0.0000      0.0000
 21      0.0000      0.0063      0.0000      0.0000      0.0000      0.0000      0.0000      0.0000      0.0000
 22      0.0000      0.0034      0.0000      0.0000      0.0000      0.0000      0.0000      0.0000      0.0000
 23      0.0000      0.0024      0.0000      0.0000      0.0000      0.0000      0.0000      0.0000      0.0000
 24      0.0000      0.0075      0.0000      0.0000      0.0000      0.0000      0.0000      0.0000      0.0000
 25      0.0000      0.0046      0.0000      0.0000      0.0000      0.0000      0.0000      0.0000      0.0000
 26      0.0000      0.0145      0.0000      0.0000      0.0000      0.0000      0.0000      0.0000      0.0000
 27      0.0000      0.0373      0.0000      0.0000      0.0000      0.0000      0.0000      0.0000      0.0000
 28      0.0000      0.0911      0.0000      0.0000      0.0400      0.0000      0.0000      0.0000      0.0000
 29      0.0000      0.4932      0.2298      0.0000      0.0000      0.0000      0.0000      0.0000      0.0000
 30      0.0000      0.2963      0.0000      0.0000      0.0000      0.0000      0.0000      0.0078      0.0000
 31      0.0000      0.4478      0.0000      0.0000      0.0000      0.5656      0.8305      0.0000      0.0000
 32      0.0000      0.0225      0.0000      0.0000      0.0000      0.0000      0.0000      0.0000      0.0000
 33      0.0000      0.0142      0.0000      0.0000      0.0000      0.0000      0.0000      0.0000      0.0000
 34      0.0000      0.0438      0.0000      0.0000      0.0000      0.0000      0.0000      0.0000      0.0000
 35      0.0000      0.0102      0.0000      0.0000      0.0000      0.0000      0.0000      0.0000      0.0000
 36      0.0000      0.0117      0.0000      0.0386      0.0000      0.0014      0.0000      0.0000      0.0000
 37      0.0000      0.0053      0.0000      0.0000      0.0000      0.0000      0.0000      0.0031      0.0000
 38      0.0000      0.0015      0.0000      0.0000      0.0000      0.0000      0.0000      0.0000      0.0000
 39      0.0000      0.0150      0.0000      0.0000      0.0000      0.0000      0.0000      0.0000      0.0000
 40      0.0000      0.0084      0.0000      0.0000      0.0000      0.0000      0.0000      0.0000      0.0000
 41      0.0000      0.0137      0.0000      0.0000      0.0000      0.0000      0.0000      0.0000      0.0000
 42      0.0000      0.1150      0.0000      0.0823      0.0000      0.0000      0.0000      0.0000      0.0000
 43      0.0000      0.2409      0.0898      0.0000      0.0000      0.1145      0.0000      0.0000      0.0000
 44      0.0000      1.0646      0.9722      1.0392      0.0000      1.2404      0.0000      2.0178      1.7113
 45     27.3126     24.9332     25.8256     26.1281     27.0861     25.9350     27.2910     25.0948     25.5316

# j      m_j: min, <> & last-chain-values for 1 ...  7 chains
  1  3.3170E-01  2.8433E-01  2.8736E-01  2.8840E-01  2.8917E-01  2.8061E-01  2.8485E-01  2.8227E-01  2.7922E-01
  2  0.0000E+00  7.1567E-06  0.0000E+00  0.0000E+00  0.0000E+00  0.0000E+00  0.0000E+00  0.0000E+00  0.0000E+00
  3  0.0000E+00  3.5366E-05  0.0000E+00  1.7397E-04  0.0000E+00  0.0000E+00  0.0000E+00  0.0000E+00  0.0000E+00
  4  0.0000E+00  3.9366E-05  0.0000E+00  0.0000E+00  0.0000E+00  0.0000E+00  0.0000E+00  0.0000E+00  0.0000E+00
  5  0.0000E+00  5.4129E-05  0.0000E+00  0.0000E+00  0.0000E+00  0.0000E+00  0.0000E+00  0.0000E+00  0.0000E+00
  6  0.0000E+00  6.1779E-05  0.0000E+00  0.0000E+00  0.0000E+00  0.0000E+00  0.0000E+00  0.0000E+00  0.0000E+00
  7  0.0000E+00  1.8601E-05  0.0000E+00  0.0000E+00  0.0000E+00  0.0000E+00  0.0000E+00  0.0000E+00  0.0000E+00
  8  0.0000E+00  1.5803E-04  0.0000E+00  0.0000E+00  0.0000E+00  0.0000E+00  0.0000E+00  0.0000E+00  0.0000E+00
  9  0.0000E+00  2.1149E-04  0.0000E+00  0.0000E+00  0.0000E+00  0.0000E+00  0.0000E+00  0.0000E+00  0.0000E+00
 10  0.0000E+00  5.9450E-04  1.6690E-03  0.0000E+00  0.0000E+00  0.0000E+00  0.0000E+00  0.0000E+00  0.0000E+00
 11  0.0000E+00  1.3704E-03  0.0000E+00  0.0000E+00  0.0000E+00  0.0000E+00  0.0000E+00  0.0000E+00  0.0000E+00
 12  0.0000E+00  2.1788E-03  0.0000E+00  0.0000E+00  0.0000E+00  0.0000E+00  0.0000E+00  4.5745E-03  0.0000E+00
 13  0.0000E+00  4.1653E-03  0.0000E+00  0.0000E+00  0.0000E+00  0.0000E+00  0.0000E+00  0.0000E+00  0.0000E+00
 14  0.0000E+00  1.1662E-02  0.0000E+00  0.0000E+00  0.0000E+00  0.0000E+00  0.0000E+00  0.0000E+00  0.0000E+00
 15  0.0000E+00  3.6006E-02  0.0000E+00  0.0000E+00  0.0000E+00  0.0000E+00  0.0000E+00  0.0000E+00  0.0000E+00
 16  0.0000E+00  3.2765E-02  2.9647E-02  2.6686E-02  2.5917E-02  3.1006E-02  2.5188E-02  3.3117E-02  3.3103E-02
 17  0.0000E+00  1.0101E-04  0.0000E+00  0.0000E+00  0.0000E+00  4.0725E-05  0.0000E+00  0.0000E+00  0.0000E+00
 18  0.0000E+00  1.1293E-05  0.0000E+00  0.0000E+00  0.0000E+00  0.0000E+00  0.0000E+00  0.0000E+00  0.0000E+00
 19  0.0000E+00  3.0285E-04  0.0000E+00  0.0000E+00  1.9625E-04  0.0000E+00  0.0000E+00  0.0000E+00  0.0000E+00
 20  0.0000E+00  5.2612E-05  0.0000E+00  0.0000E+00  0.0000E+00  0.0000E+00  0.0000E+00  0.0000E+00  0.0000E+00
 21  0.0000E+00  5.8692E-05  0.0000E+00  0.0000E+00  0.0000E+00  0.0000E+00  0.0000E+00  0.0000E+00  0.0000E+00
 22  0.0000E+00  5.2071E-05  0.0000E+00  0.0000E+00  0.0000E+00  0.0000E+00  0.0000E+00  0.0000E+00  0.0000E+00
 23  0.0000E+00  7.1773E-05  0.0000E+00  0.0000E+00  0.0000E+00  0.0000E+00  0.0000E+00  0.0000E+00  0.0000E+00
 24  0.0000E+00  5.1788E-04  0.0000E+00  0.0000E+00  0.0000E+00  0.0000E+00  0.0000E+00  0.0000E+00  0.0000E+00
 25  0.0000E+00  4.9094E-04  0.0000E+00  0.0000E+00  0.0000E+00  0.0000E+00  0.0000E+00  0.0000E+00  0.0000E+00
 26  0.0000E+00  2.9281E-03  0.0000E+00  0.0000E+00  0.0000E+00  0.0000E+00  0.0000E+00  0.0000E+00  0.0000E+00
 27  0.0000E+00  1.5248E-02  0.0000E+00  0.0000E+00  0.0000E+00  0.0000E+00  0.0000E+00  0.0000E+00  0.0000E+00
 28  0.0000E+00  7.5300E-02  0.0000E+00  0.0000E+00  3.2113E-02  0.0000E+00  0.0000E+00  0.0000E+00  0.0000E+00
 29  0.0000E+00  8.6284E-01  3.9573E-01  0.0000E+00  0.0000E+00  0.0000E+00  0.0000E+00  0.0000E+00  0.0000E+00
 30  0.0000E+00  6.1847E-01  0.0000E+00  0.0000E+00  0.0000E+00  0.0000E+00  0.0000E+00  1.6022E-02  0.0000E+00
 31  0.0000E+00  6.7693E-04  0.0000E+00  0.0000E+00  0.0000E+00  8.3445E-04  1.2120E-03  0.0000E+00  0.0000E+00
 32  0.0000E+00  1.7915E-05  0.0000E+00  0.0000E+00  0.0000E+00  0.0000E+00  0.0000E+00  0.0000E+00  0.0000E+00
 33  0.0000E+00  1.6750E-05  0.0000E+00  0.0000E+00  0.0000E+00  0.0000E+00  0.0000E+00  0.0000E+00  0.0000E+00
