###################################################################
## OUTPUT of StarlightChains_v04.for    [Cid@UFSC - 01/Apr/2007] ##
###################################################################

## Some input info
M33_LS4_20211119f_2.spec                 [arq_obs]
Base.BC03.N                              [arq_base]
Mask.EmLines_CHAOS_focusbluefit.gm       [arq_masks]
StCv04.C11.config                        [arq_config]
   45                                    [N_base]
    0                                    [N_YAV_components = # of components with extra extinction!]
    0                                    [i_FitPowerLaw (1/0 = Yes/No)]
-9.99                                    [alpha_PowerLaw]
CCM                                      [red_law_option]
 1.458241                                [q_norm = A(l_norm)/A(V)]

## (Re)Sampling Parameters
 3100.00                                 [l_ini (A)]
 5300.00                                 [l_fin (A)]
    1.00                                 [dl    (A)]     (OBS: dl_cushion =    50.00 A)

## Normalization info
 4020.00                                 [l_norm (A) - for base]
 4010.00                                 [llow_norm (A) - window for f_obs]
 4060.00                                 [lupp_norm (A) - window for f_obs]
5.492706E-16                             [fobs_norm (in input units)]

## S/N
 4730.00                                 [llow_SN (A) - window for S/N]
 4780.00                                 [lupp_SN (A) - window for S/N]
  44.654                                 [S/N in S/N window]
  64.456                                 [S/N in norm. window]
  46.731                                 [S/N_err in S/N window]
  67.453                                 [S/N_err in norm. window]
  1.0000                                 [fscale_chi2]

## etc...
    -2007206                             [idum_orig]
  1493                                   [NOl_eff]
   471                                   [Nl_eff]
  1022    NSIGMA                         [Ntot_cliped & clip_method]
   406560                                [Nglobal_steps]
   7                                     [N_chains]
   5                                     [NEX0s_base = N_base in EX0s-fits]
 0   0   1        0   2.0   9.135E+01    [Clip-Bug, RC-Crash & Burn-In warning-flags, n_censored_weights, wei_nsig_threshold & wei_limit]
     6      5.138      5.117      0.021  [idt_all, wdt_TotTime, wdt_UsrTime & wdt_SysTime (sec)]

## Synthesis Results - Best model ##

 3.07430E+00                             [chi2/Nl_eff]
     3.68169                             [adev (%)]

   119.42838                             [sum-of-x (%)]
 1.90691E-16                             [Flux_tot (units of input spectrum!)]
 6.27868E-12                             [Mini_tot (???)]
 3.15896E-12                             [Mcor_tot (???)]

   1.78                                  [v0_min  (km/s)]
 120.04                                  [vd_min  (km/s)]
-0.9199                                  [AV_min  (mag)]
 0.0000                                  [YAV_min (mag)]

# j     x_j(%)      Mini_j(%)     Mcor_j(%)     age_j(yr)     Z_j      (L/M)_j    YAV?  Mstars   component_j        a/Fe...       SSP_chi2r SSP_adev(%)   SSP_AV   SSP_x(%)
  1     98.3803     2.2458E-01    4.4638E-01    1.000000E+06  0.00400  1.114E-02    0   1.0000   age020_m42            0.0000     1.5807E+01     7.5858   0.4562   122.9450
  2      0.0000     0.0000E+00    0.0000E+00    3.160000E+06  0.00400  4.073E-02    0   0.9999   age045_m42            0.0000     4.3753E+01    13.4863  -0.5862   141.3322
  3      0.0000     0.0000E+00    0.0000E+00    5.010000E+06  0.00400  2.534E-02    0   0.9488   age055_m42            0.0000     3.2196E+01    11.5176  -0.1768   134.1206
  4      0.0000     0.0000E+00    0.0000E+00    1.000000E+07  0.00400  1.271E-02    0   0.8862   age070_m42            0.0000     3.1907E+01    11.6766  -0.8395   137.4396
  5      0.0000     0.0000E+00    0.0000E+00    2.512000E+07  0.00400  5.070E-03    0   0.8174   age090_m42            0.0000     3.4670E+01    12.2369  -1.0000   140.3099
  6      0.0000     0.0000E+00    0.0000E+00    4.000000E+07  0.00400  3.505E-03    0   0.7851   age104_m42            0.0000     4.7856E+01    13.9979  -1.0000   135.4322
  7      0.0000     0.0000E+00    0.0000E+00    1.015200E+08  0.00400  2.268E-03    0   0.7207   age116_m42            0.0000     1.0384E+02    20.2694  -1.0000   141.6618
  8      0.0000     0.0000E+00    0.0000E+00    2.861200E+08  0.00400  1.079E-03    0   0.6613   age125_m42            0.0000     1.4909E+02    21.7660  -1.0000   129.4884
  9      0.0000     0.0000E+00    0.0000E+00    6.405400E+08  0.00400  5.077E-04    0   0.6197   age132_m42            0.0000     1.7563E+02    23.7022  -1.0000   122.7523
 10      0.0000     0.0000E+00    0.0000E+00    9.047900E+08  0.00400  3.535E-04    0   0.6024   age135_m42            0.0000     1.8757E+02    25.2750  -1.0000   114.7948
 11      0.0000     0.0000E+00    0.0000E+00    1.434000E+09  0.00400  1.910E-04    0   0.5716   age139_m42            0.0000     2.1857E+02    28.7676  -1.0000    98.0012
 12      0.0000     0.0000E+00    0.0000E+00    2.500000E+09  0.00400  9.818E-05    0   0.5463   age150_m42            0.0000     2.4355E+02    31.1358  -1.0000    86.4952
 13      0.0000     0.0000E+00    0.0000E+00    5.000000E+09  0.00400  4.718E-05    0   0.5228   age161_m42            0.0000     2.6513E+02    32.6627  -1.0000    79.8952
 14      0.0000     0.0000E+00    0.0000E+00    1.100000E+10  0.00400  2.205E-05    0   0.4980   age185_m42            0.0000     2.9854E+02    34.5563  -1.0000    71.8604
 15      0.0000     0.0000E+00    0.0000E+00    1.300000E+10  0.00400  1.883E-05    0   0.4927   age193_m42            0.0000     3.0204E+02    34.7221  -1.0000    71.3899
 16      0.0013     1.6536E-06    3.2867E-06    1.000000E+06  0.02000  1.989E-02    0   1.0000   age020_m62            0.0000     1.6336E+01     7.7076   0.4255   123.7363
 17      0.0000     0.0000E+00    0.0000E+00    3.160000E+06  0.02000  3.772E-02    0   0.9858   age045_m62            0.0000     2.2845E+01     9.5696   0.2109   128.7126
 18      0.0000     0.0000E+00    0.0000E+00    5.010000E+06  0.02000  3.227E-02    0   0.9342   age055_m62            0.0000     4.4584E+01    13.8778  -0.3978   139.1358
 19      0.0000     0.0000E+00    0.0000E+00    1.000000E+07  0.02000  1.011E-02    0   0.8751   age070_m62            0.0000     1.8506E+01     8.4920  -0.6548   132.9215
 20      0.0000     0.0000E+00    0.0000E+00    2.512000E+07  0.02000  4.206E-03    0   0.8099   age090_m62            0.0000     2.6596E+01    10.5110  -0.8766   135.7001
 21      0.0000     0.0000E+00    0.0000E+00    4.000000E+07  0.02000  3.373E-03    0   0.7799   age104_m62            0.0000     4.8369E+01    14.4329  -1.0000   141.9919
 22      0.0000     0.0000E+00    0.0000E+00    1.015200E+08  0.02000  1.878E-03    0   0.7221   age116_m62            0.0000     9.7455E+01    19.8458  -1.0000   143.9512
 23      0.0000     0.0000E+00    0.0000E+00    2.861200E+08  0.02000  8.869E-04    0   0.6700   age125_m62            0.0000     1.7033E+02    23.8169  -1.0000   134.2019
 24      0.0000     0.0000E+00    0.0000E+00    6.405400E+08  0.02000  3.657E-04    0   0.6322   age132_m62            0.0000     2.1065E+02    26.3650  -1.0000   115.1023
 25      0.0000     0.0000E+00    0.0000E+00    9.047900E+08  0.02000  2.312E-04    0   0.6152   age135_m62            0.0000     2.2556E+02    28.2708  -1.0000   103.0880
 26      0.0000     0.0000E+00    0.0000E+00    1.434000E+09  0.02000  1.168E-04    0   0.5865   age139_m62            0.0000     2.5429E+02    31.4539  -1.0000    87.1793
 27      0.0000     0.0000E+00    0.0000E+00    2.500000E+09  0.02000  5.505E-05    0   0.5610   age150_m62            0.0000     2.9299E+02    34.0882  -1.0000    75.4285
 28      0.0000     0.0000E+00    0.0000E+00    5.000000E+09  0.02000  2.596E-05    0   0.5353   age161_m62            0.0000     3.3359E+02    36.0349  -1.0000    67.3666
 29      0.0000     0.0000E+00    0.0000E+00    1.100000E+10  0.02000  1.169E-05    0   0.5103   age185_m62            0.0000     3.7409E+02    37.6861  -1.0000    60.3981
 30      0.0000     0.0000E+00    0.0000E+00    1.300000E+10  0.02000  9.691E-06    0   0.5047   age193_m62            0.0000     3.7978E+02    37.8912  -1.0000    59.6344
 31      0.0000     0.0000E+00    0.0000E+00    1.000000E+06  0.05000  2.651E-02    0   0.9998   age020_m72            0.0000     1.7193E+01     8.0280   0.3955   124.8501
 32      0.0000     0.0000E+00    0.0000E+00    3.160000E+06  0.05000  4.817E-02    0   0.9577   age045_m72            0.0000     3.2968E+01    11.8356  -0.0558   134.9130
 33      0.0000     0.0000E+00    0.0000E+00    5.010000E+06  0.05000  3.101E-02    0   0.9147   age055_m72            0.0000     3.1536E+01    11.5152  -0.3324   137.1591
 34      0.0000     0.0000E+00    0.0000E+00    1.000000E+07  0.05000  8.954E-03    0   0.8524   age070_m72            0.0000     3.0023E+01    11.2130  -0.1351   135.0351
 35      0.0000     0.0000E+00    0.0000E+00    2.512000E+07  0.05000  4.207E-03    0   0.7902   age090_m72            0.0000     4.7108E+01    14.2416  -0.6228   143.4146
 36      0.0000     0.0000E+00    0.0000E+00    4.000000E+07  0.05000  3.198E-03    0   0.7618   age104_m72            0.0000     6.5135E+01    16.9840  -1.0000   148.5636
 37      0.0000     0.0000E+00    0.0000E+00    1.015200E+08  0.05000  1.716E-03    0   0.7092   age116_m72            0.0000     1.1501E+02    21.5867  -1.0000   146.2919
 38      0.0000     0.0000E+00    0.0000E+00    2.861200E+08  0.05000  7.047E-04    0   0.6618   age125_m72            0.0000     1.8785E+02    24.4745  -1.0000   127.2295
 39      0.0000     0.0000E+00    0.0000E+00    6.405400E+08  0.05000  2.633E-04    0   0.6253   age132_m72            0.0000     2.3117E+02    28.4435  -1.0000   103.2027
 40      0.0000     0.0000E+00    0.0000E+00    9.047900E+08  0.05000  1.484E-04    0   0.6088   age135_m72            0.0000     2.6489E+02    31.9364  -1.0000    85.7633
 41      0.0000     0.0000E+00    0.0000E+00    1.434000E+09  0.05000  7.827E-05    0   0.5847   age139_m72            0.0000     3.0877E+02    34.7885  -1.0000    73.0646
 42      0.0000     0.0000E+00    0.0000E+00    2.500000E+09  0.05000  3.759E-05    0   0.5583   age150_m72            0.0000     3.4711E+02    36.6387  -1.0000    65.2656
 43      0.0000     0.0000E+00    0.0000E+00    5.000000E+09  0.05000  1.548E-05    0   0.5320   age161_m72            0.0000     3.8593E+02    38.1709  -1.0000    57.3698
 44      1.0189     3.9667E+00    3.9972E+00    1.100000E+10  0.05000  6.532E-06    0   0.5070   age185_m72            0.0000     4.2163E+02    39.3588  -1.0000    50.3720
 45     20.0279     9.5809E+01    9.5556E+01    1.300000E+10  0.05000  5.316E-06    0   0.5018   age193_m72            0.0000     4.3286E+02    39.7098  -1.0000    48.3760


## Synthesis Results - Average & Chains ##

# j      x_j: min, <> & last-chain-values for 1 ...  7 chains
  1     98.3803     95.0984     96.0630     95.4934     95.5333     95.1606     95.6784     97.4249     95.2599
  2      0.0000      0.0285      0.0000      0.0000      0.0000      0.0923      0.0000      0.0000      0.0000
  3      0.0000      0.0473      0.0000      0.0000      0.0000      0.0000      0.0000      0.0000      0.0000
  4      0.0000      0.0177      0.0000      0.0000      0.0000      0.0000      0.0047      0.0000      0.0000
  5      0.0000      0.0263      0.0949      0.0000      0.0000      0.0000      0.0000      0.0000      0.0000
  6      0.0000      0.0149      0.0000      0.0000      0.0000      0.0000      0.0000      0.0000      0.0000
  7      0.0000      0.0030      0.0000      0.0000      0.0000      0.0000      0.0000      0.0000      0.0000
  8      0.0000      0.0039      0.0000      0.0000      0.0000      0.0000      0.0000      0.0000      0.0000
  9      0.0000      0.0061      0.0000      0.0000      0.0000      0.0000      0.0000      0.0000      0.0000
 10      0.0000      0.0083      0.0000      0.0000      0.0000      0.0000      0.0000      0.0721      0.0000
 11      0.0000      0.0172      0.0000      0.0000      0.0000      0.0000      0.0000      0.0000      0.0000
 12      0.0000      0.0125      0.0000      0.0000      0.0000      0.0000      0.0344      0.0000      0.0000
 13      0.0000      0.0255      0.0020      0.0000      0.0000      0.0000      0.0400      0.0000      0.0000
 14      0.0000      0.0232      0.0000      0.0000      0.0000      0.0000      0.0000      0.0000      0.0000
 15      0.0000      0.0213      0.0000      0.0000      0.0000      0.0000      0.0000      0.0000      0.0000
 16      0.0013      0.9507      0.0000      1.1810      1.7797      1.0737      0.5114      0.0546      1.7323
 17      0.0000      0.1596      0.0000      0.0000      0.0000      0.0763      0.0000      0.0000      0.0000
 18      0.0000      0.0275      0.0000      0.0000      0.0000      0.0000      0.0000      0.0000      0.0000
 19      0.0000      0.0932      0.0000      0.0000      0.0000      0.0574      0.0000      0.0000      0.0000
 20      0.0000      0.0384      0.0000      0.0362      0.0000      0.0000      0.0000      0.0021      0.0000
 21      0.0000      0.0078      0.0000      0.0000      0.0000      0.0000      0.0000      0.0000      0.0000
 22      0.0000      0.0066      0.0000      0.0000      0.0000      0.0000      0.0000      0.0000      0.0143
 23      0.0000      0.0032      0.0000      0.0000      0.0000      0.0000      0.0000      0.0000      0.0000
 24      0.0000      0.0063      0.0000      0.0000      0.0000      0.0000      0.0000      0.0000      0.0000
 25      0.0000      0.0032      0.0000      0.0000      0.0000      0.0000      0.0000      0.0000      0.0000
 26      0.0000      0.0147      0.0000      0.0000      0.0000      0.0000      0.0000      0.0000      0.0000
 27      0.0000      0.0261      0.0000      0.0000      0.0000      0.0000      0.0000      0.0000      0.0582
 28      0.0000      0.0231      0.0000      0.0000      0.0000      0.0000      0.0000      0.0000      0.0000
 29      0.0000      0.1011      0.0000      0.0020      0.0000      0.1101      0.0000      0.0000      0.0921
 30      0.0000      0.0749      0.0000      0.0000      0.1155      0.0000      0.0000      0.0000      0.0000
 31      0.0000      0.7222      1.0137      0.5368      0.2248      1.3909      1.1894      0.0000      0.6032
 32      0.0000      0.0610      0.0000      0.0143      0.0000      0.0000      0.0000      0.1400      0.0000
 33      0.0000      0.0374      0.1866      0.0000      0.0000      0.0000      0.0000      0.0000      0.0017
 34      0.0000      0.0316      0.0000      0.0000      0.0000      0.0000      0.0000      0.0000      0.0000
 35      0.0000      0.0184      0.0000      0.0124      0.0000      0.0000      0.0000      0.0000      0.0000
 36      0.0000      0.0073      0.1114      0.0000      0.0000      0.0053      0.0000      0.0000      0.0000
 37      0.0000      0.0093      0.0000      0.0000      0.0000      0.0000      0.0000      0.0000      0.0000
 38      0.0000      0.0056      0.0000      0.0000      0.0000      0.0000      0.0000      0.0000      0.0000
 39      0.0000      0.0038      0.0012      0.0066      0.0000      0.0000      0.0000      0.0000      0.0000
 40      0.0000      0.0111      0.0000      0.0000      0.0000      0.0000      0.0033      0.0000      0.0000
 41      0.0000      0.0172      0.0000      0.0000      0.0000      0.0000      0.0000      0.0000      0.0000
 42      0.0000      0.0492      0.0000      0.0000      0.0000      0.0000      0.0000      0.0751      0.0532
 43      0.0000      0.2667      0.0000      0.0000      0.0711      0.0000      0.5008      0.0000      0.0000
 44      1.0189      3.2621      3.0370      3.5956      3.3579      3.6599      3.2290      3.1690      3.2080
 45     20.0279     18.2668     19.0804     18.6034     18.4643     18.0277     18.4340     18.7448     18.4741

# j      m_j: min, <> & last-chain-values for 1 ...  7 chains
  1  4.4638E-01  4.2537E-01  4.2156E-01  4.1940E-01  4.2440E-01  4.2727E-01  4.2577E-01  4.3180E-01  4.2608E-01
  2  0.0000E+00  3.4923E-05  0.0000E+00  0.0000E+00  0.0000E+00  1.1334E-04  0.0000E+00  0.0000E+00  0.0000E+00
  3  0.0000E+00  8.8260E-05  0.0000E+00  0.0000E+00  0.0000E+00  0.0000E+00  0.0000E+00  0.0000E+00  0.0000E+00
  4  0.0000E+00  6.1326E-05  0.0000E+00  0.0000E+00  0.0000E+00  0.0000E+00  1.6282E-05  0.0000E+00  0.0000E+00
  5  0.0000E+00  2.1130E-04  7.4783E-04  0.0000E+00  0.0000E+00  0.0000E+00  0.0000E+00  0.0000E+00  0.0000E+00
  6  0.0000E+00  1.6649E-04  0.0000E+00  0.0000E+00  0.0000E+00  0.0000E+00  0.0000E+00  0.0000E+00  0.0000E+00
  7  0.0000E+00  4.7515E-05  0.0000E+00  0.0000E+00  0.0000E+00  0.0000E+00  0.0000E+00  0.0000E+00  0.0000E+00
  8  0.0000E+00  1.2016E-04  0.0000E+00  0.0000E+00  0.0000E+00  0.0000E+00  0.0000E+00  0.0000E+00  0.0000E+00
  9  0.0000E+00  3.6897E-04  0.0000E+00  0.0000E+00  0.0000E+00  0.0000E+00  0.0000E+00  0.0000E+00  0.0000E+00
 10  0.0000E+00  7.0374E-04  0.0000E+00  0.0000E+00  0.0000E+00  0.0000E+00  0.0000E+00  6.0628E-03  0.0000E+00
 11  0.0000E+00  2.5646E-03  0.0000E+00  0.0000E+00  0.0000E+00  0.0000E+00  0.0000E+00  0.0000E+00  0.0000E+00
 12  0.0000E+00  3.4712E-03  0.0000E+00  0.0000E+00  0.0000E+00  0.0000E+00  9.4939E-03  0.0000E+00  0.0000E+00
 13  0.0000E+00  1.4084E-02  1.0914E-03  0.0000E+00  0.0000E+00  0.0000E+00  2.1971E-02  0.0000E+00  0.0000E+00
 14  0.0000E+00  2.6107E-02  0.0000E+00  0.0000E+00  0.0000E+00  0.0000E+00  0.0000E+00  0.0000E+00  0.0000E+00
 15  0.0000E+00  2.7778E-02  0.0000E+00  0.0000E+00  0.0000E+00  0.0000E+00  0.0000E+00  0.0000E+00  0.0000E+00
 16  3.2867E-06  2.3817E-03  0.0000E+00  2.9051E-03  4.4282E-03  2.7000E-03  1.2747E-03  1.3549E-04  4.3396E-03
 17  0.0000E+00  2.0788E-04  0.0000E+00  0.0000E+00  0.0000E+00  9.9748E-05  0.0000E+00  0.0000E+00  0.0000E+00
 18  0.0000E+00  3.9657E-05  0.0000E+00  0.0000E+00  0.0000E+00  0.0000E+00  0.0000E+00  0.0000E+00  0.0000E+00
 19  0.0000E+00  4.0184E-04  0.0000E+00  0.0000E+00  0.0000E+00  2.4868E-04  0.0000E+00  0.0000E+00  0.0000E+00
 20  0.0000E+00  3.6890E-04  0.0000E+00  3.4098E-04  0.0000E+00  0.0000E+00  0.0000E+00  1.9726E-05  0.0000E+00
 21  0.0000E+00  9.0141E-05  0.0000E+00  0.0000E+00  0.0000E+00  0.0000E+00  0.0000E+00  0.0000E+00  0.0000E+00
 22  0.0000E+00  1.2563E-04  0.0000E+00  0.0000E+00  0.0000E+00  0.0000E+00  0.0000E+00  0.0000E+00  2.7433E-04
 23  0.0000E+00  1.2146E-04  0.0000E+00  0.0000E+00  0.0000E+00  0.0000E+00  0.0000E+00  0.0000E+00  0.0000E+00
 24  0.0000E+00  5.4665E-04  0.0000E+00  0.0000E+00  0.0000E+00  0.0000E+00  0.0000E+00  0.0000E+00  0.0000E+00
 25  0.0000E+00  4.3032E-04  0.0000E+00  0.0000E+00  0.0000E+00  0.0000E+00  0.0000E+00  0.0000E+00  0.0000E+00
 26  0.0000E+00  3.6729E-03  0.0000E+00  0.0000E+00  0.0000E+00  0.0000E+00  0.0000E+00  0.0000E+00  0.0000E+00
 27  0.0000E+00  1.3231E-02  0.0000E+00  0.0000E+00  0.0000E+00  0.0000E+00  0.0000E+00  0.0000E+00  2.9552E-02
 28  0.0000E+00  2.3785E-02  0.0000E+00  0.0000E+00  0.0000E+00  0.0000E+00  0.0000E+00  0.0000E+00  0.0000E+00
 29  0.0000E+00  2.1995E-01  0.0000E+00  4.2770E-03  0.0000E+00  2.4040E-01  0.0000E+00  0.0000E+00  2.0040E-01
 30  0.0000E+00  1.9433E-01  0.0000E+00  0.0000E+00  2.9762E-01  0.0000E+00  0.0000E+00  0.0000E+00  0.0000E+00
 31  0.0000E+00  1.3573E-03  1.8689E-03  9.9049E-04  4.1949E-04  2.6238E-03  2.2238E-03  0.0000E+00  1.1335E-03
 32  0.0000E+00  6.0470E-05  0.0000E+00  1.3905E-05  0.0000E+00  0.0000E+00  0.0000E+00  1.3741E-04  0.0000E+00
 33  0.0000E+00  5.4941E-05  2.6903E-04  0.0000E+00  0.0000E+00  0.0000E+00  0.0000E+00  0.0000E+00  2.5437E-06
