###################################################################
## OUTPUT of StarlightChains_v04.for    [Cid@UFSC - 01/Apr/2007] ##
###################################################################

## Some input info
M33_LS3_20211119f_3.spec                 [arq_obs]
Base.BC03.N                              [arq_base]
Mask.EmLines_CHAOS_focusbluefit.gm       [arq_masks]
StCv04.C11.config                        [arq_config]
   45                                    [N_base]
    0                                    [N_YAV_components = # of components with extra extinction!]
    0                                    [i_FitPowerLaw (1/0 = Yes/No)]
-9.99                                    [alpha_PowerLaw]
CCM                                      [red_law_option]
 1.458241                                [q_norm = A(l_norm)/A(V)]

## (Re)Sampling Parameters
 3100.00                                 [l_ini (A)]
 5300.00                                 [l_fin (A)]
    1.00                                 [dl    (A)]     (OBS: dl_cushion =    50.00 A)

## Normalization info
 4020.00                                 [l_norm (A) - for base]
 4010.00                                 [llow_norm (A) - window for f_obs]
 4060.00                                 [lupp_norm (A) - window for f_obs]
5.775858E-16                             [fobs_norm (in input units)]

## S/N
 4730.00                                 [llow_SN (A) - window for S/N]
 4780.00                                 [lupp_SN (A) - window for S/N]
  38.730                                 [S/N in S/N window]
  61.380                                 [S/N in norm. window]
  17.738                                 [S/N_err in S/N window]
  28.112                                 [S/N_err in norm. window]
  1.0000                                 [fscale_chi2]

## etc...
    -2007204                             [idum_orig]
  1493                                   [NOl_eff]
  1475                                   [Nl_eff]
    18    NSIGMA                         [Ntot_cliped & clip_method]
   485520                                [Nglobal_steps]
   7                                     [N_chains]
   6                                     [NEX0s_base = N_base in EX0s-fits]
 0   0   1        0   2.0   3.842E+01    [Clip-Bug, RC-Crash & Burn-In warning-flags, n_censored_weights, wei_nsig_threshold & wei_limit]
    10      4.852      4.821      0.031  [idt_all, wdt_TotTime, wdt_UsrTime & wdt_SysTime (sec)]

## Synthesis Results - Best model ##

 7.93641E-01                             [chi2/Nl_eff]
     4.27142                             [adev (%)]

   104.66719                             [sum-of-x (%)]
 5.53485E-16                             [Flux_tot (units of input spectrum!)]
 7.40879E-12                             [Mini_tot (???)]
 3.74665E-12                             [Mcor_tot (???)]

  89.35                                  [v0_min  (km/s)]
 150.00                                  [vd_min  (km/s)]
-0.0657                                  [AV_min  (mag)]
 0.0000                                  [YAV_min (mag)]

# j     x_j(%)      Mini_j(%)     Mcor_j(%)     age_j(yr)     Z_j      (L/M)_j    YAV?  Mstars   component_j        a/Fe...       SSP_chi2r SSP_adev(%)   SSP_AV   SSP_x(%)
  1     97.0012     6.2150E-01    1.2290E+00    1.000000E+06  0.00400  1.114E-02    0   1.0000   age020_m42            0.0000     1.1348E+00     5.0401   0.5532   105.4573
  2      0.0000     0.0000E+00    0.0000E+00    3.160000E+06  0.00400  4.073E-02    0   0.9999   age045_m42            0.0000     5.8214E+00    12.0452  -0.5534   120.3631
  3      0.0000     0.0000E+00    0.0000E+00    5.010000E+06  0.00400  2.534E-02    0   0.9488   age055_m42            0.0000     3.3282E+00     9.0788  -0.0813   113.8947
  4      0.0000     0.0000E+00    0.0000E+00    1.000000E+07  0.00400  1.271E-02    0   0.8862   age070_m42            0.0000     4.4633E+00    10.1751  -0.7582   116.9854
  5      0.0000     0.0000E+00    0.0000E+00    2.512000E+07  0.00400  5.070E-03    0   0.8174   age090_m42            0.0000     4.7964E+00    10.6855  -0.9180   118.9399
  6      0.0000     0.0000E+00    0.0000E+00    4.000000E+07  0.00400  3.505E-03    0   0.7851   age104_m42            0.0000     6.3065E+00    12.0386  -1.0000   118.4635
  7      0.0000     0.0000E+00    0.0000E+00    1.015200E+08  0.00400  2.268E-03    0   0.7207   age116_m42            0.0000     1.9296E+01    20.3305  -1.0000   123.0686
  8      0.0000     0.0000E+00    0.0000E+00    2.861200E+08  0.00400  1.079E-03    0   0.6613   age125_m42            0.0000     2.6079E+01    23.0187  -1.0000   116.3013
  9      0.0000     0.0000E+00    0.0000E+00    6.405400E+08  0.00400  5.077E-04    0   0.6197   age132_m42            0.0000     3.1642E+01    25.8740  -1.0000   113.1236
 10      0.0000     0.0000E+00    0.0000E+00    9.047900E+08  0.00400  3.535E-04    0   0.6024   age135_m42            0.0000     3.3014E+01    27.2325  -1.0000   108.1346
 11      0.0000     0.0000E+00    0.0000E+00    1.434000E+09  0.00400  1.910E-04    0   0.5716   age139_m42            0.0000     3.9936E+01    31.4745  -1.0000    96.1632
 12      0.0000     0.0000E+00    0.0000E+00    2.500000E+09  0.00400  9.818E-05    0   0.5463   age150_m42            0.0000     4.4943E+01    34.8624  -1.0000    86.9651
 13      0.0000     0.0000E+00    0.0000E+00    5.000000E+09  0.00400  4.718E-05    0   0.5228   age161_m42            0.0000     4.8879E+01    36.9654  -1.0000    81.3310
 14      0.0000     0.0000E+00    0.0000E+00    1.100000E+10  0.00400  2.205E-05    0   0.4980   age185_m42            0.0000     5.6761E+01    40.1428  -1.0000    74.1057
 15      0.0000     0.0000E+00    0.0000E+00    1.300000E+10  0.00400  1.883E-05    0   0.4927   age193_m42            0.0000     5.7393E+01    40.3798  -1.0000    73.6876
 16      0.0000     0.0000E+00    0.0000E+00    1.000000E+06  0.02000  1.989E-02    0   1.0000   age020_m62            0.0000     1.2430E+00     5.2476   0.5174   106.2519
 17      0.0000     0.0000E+00    0.0000E+00    3.160000E+06  0.02000  3.772E-02    0   0.9858   age045_m62            0.0000     1.7083E+00     6.3916   0.3463   109.0306
 18      0.0000     0.0000E+00    0.0000E+00    5.010000E+06  0.02000  3.227E-02    0   0.9342   age055_m62            0.0000     5.2311E+00    11.5912  -0.2959   117.1535
 19      0.0000     0.0000E+00    0.0000E+00    1.000000E+07  0.02000  1.011E-02    0   0.8751   age070_m62            0.0000     2.2111E+00     6.9779  -0.5376   113.3368
 20      0.0000     0.0000E+00    0.0000E+00    2.512000E+07  0.02000  4.206E-03    0   0.8099   age090_m62            0.0000     2.6713E+00     7.9681  -0.7268   114.2288
 21      0.0000     0.0000E+00    0.0000E+00    4.000000E+07  0.02000  3.373E-03    0   0.7799   age104_m62            0.0000     7.0987E+00    13.0891  -1.0000   121.6388
 22      0.0000     0.0000E+00    0.0000E+00    1.015200E+08  0.02000  1.878E-03    0   0.7221   age116_m62            0.0000     1.7228E+01    19.6802  -1.0000   124.6094
 23      0.0000     0.0000E+00    0.0000E+00    2.861200E+08  0.02000  8.869E-04    0   0.6700   age125_m62            0.0000     3.0973E+01    25.0168  -1.0000   120.4993
 24      0.0000     0.0000E+00    0.0000E+00    6.405400E+08  0.02000  3.657E-04    0   0.6322   age132_m62            0.0000     3.8341E+01    29.3574  -1.0000   109.3505
 25      0.0000     0.0000E+00    0.0000E+00    9.047900E+08  0.02000  2.312E-04    0   0.6152   age135_m62            0.0000     4.1885E+01    31.7077  -1.0000   100.9476
 26      0.0000     0.0000E+00    0.0000E+00    1.434000E+09  0.02000  1.168E-04    0   0.5865   age139_m62            0.0000     4.7552E+01    35.7603  -1.0000    88.1919
 27      0.0000     0.0000E+00    0.0000E+00    2.500000E+09  0.02000  5.505E-05    0   0.5610   age150_m62            0.0000     5.6742E+01    39.8369  -1.0000    78.0426
 28      0.0000     0.0000E+00    0.0000E+00    5.000000E+09  0.02000  2.596E-05    0   0.5353   age161_m62            0.0000     6.6904E+01    43.3679  -1.0000    70.6258
 29      0.0000     0.0000E+00    0.0000E+00    1.100000E+10  0.02000  1.169E-05    0   0.5103   age185_m62            0.0000     7.7572E+01    46.6071  -1.0000    64.0285
 30      0.0000     0.0000E+00    0.0000E+00    1.300000E+10  0.02000  9.691E-06    0   0.5047   age193_m62            0.0000     7.8989E+01    47.0010  -1.0000    63.2766
 31      0.0000     0.0000E+00    0.0000E+00    1.000000E+06  0.05000  2.651E-02    0   0.9998   age020_m72            0.0000     1.3484E+00     5.4578   0.4892   107.1918
 32      0.0000     0.0000E+00    0.0000E+00    3.160000E+06  0.05000  4.817E-02    0   0.9577   age045_m72            0.0000     2.9907E+00     8.6620   0.1056   113.1446
 33      0.0000     0.0000E+00    0.0000E+00    5.010000E+06  0.05000  3.101E-02    0   0.9147   age055_m72            0.0000     3.3054E+00     8.9731  -0.1867   115.4255
 34      0.0000     0.0000E+00    0.0000E+00    1.000000E+07  0.05000  8.954E-03    0   0.8524   age070_m72            0.0000     3.0115E+00     8.4819  -0.0126   114.3291
 35      0.0000     0.0000E+00    0.0000E+00    2.512000E+07  0.05000  4.207E-03    0   0.7902   age090_m72            0.0000     5.7133E+00    12.0813  -0.5209   120.1757
 36      0.0000     0.0000E+00    0.0000E+00    4.000000E+07  0.05000  3.198E-03    0   0.7618   age104_m72            0.0000     1.1713E+01    16.7853  -1.0000   125.9141
 37      0.0000     0.0000E+00    0.0000E+00    1.015200E+08  0.05000  1.716E-03    0   0.7092   age116_m72            0.0000     1.9643E+01    21.4236  -1.0000   125.7180
 38      0.0000     0.0000E+00    0.0000E+00    2.861200E+08  0.05000  7.047E-04    0   0.6618   age125_m72            0.0000     3.4027E+01    26.3289  -1.0000   116.4828
 39      0.0000     0.0000E+00    0.0000E+00    6.405400E+08  0.05000  2.633E-04    0   0.6253   age132_m72            0.0000     4.3613E+01    32.0886  -1.0000   100.7120
 40      0.0000     0.0000E+00    0.0000E+00    9.047900E+08  0.05000  1.484E-04    0   0.6088   age135_m72            0.0000     5.0945E+01    36.7088  -1.0000    86.5803
 41      0.0000     0.0000E+00    0.0000E+00    1.434000E+09  0.05000  7.827E-05    0   0.5847   age139_m72            0.0000     6.0862E+01    41.1121  -1.0000    75.6643
 42      0.0000     0.0000E+00    0.0000E+00    2.500000E+09  0.05000  3.759E-05    0   0.5583   age150_m72            0.0000     6.9739E+01    44.2671  -1.0000    68.6275
 43      0.0000     0.0000E+00    0.0000E+00    5.000000E+09  0.05000  1.548E-05    0   0.5320   age161_m72            0.0000     7.9959E+01    47.3090  -1.0000    60.9765
 44      1.4198     1.5515E+01    1.5554E+01    1.100000E+10  0.05000  6.532E-06    0   0.5070   age185_m72            0.0000     9.0627E+01    50.1194  -1.0000    53.8424
 45      6.2461     8.3864E+01    8.3217E+01    1.300000E+10  0.05000  5.316E-06    0   0.5018   age193_m72            0.0000     9.4051E+01    50.9438  -1.0000    51.7628


## Synthesis Results - Average & Chains ##

# j      x_j: min, <> & last-chain-values for 1 ...  7 chains
  1     97.0012     84.6664     85.5722     85.2591     87.9287     85.8994     89.5829     94.2802     93.7776
  2      0.0000      0.0079      0.0000      0.0000      0.0000      0.0000      0.0000      0.0000      0.0000
  3      0.0000      0.0392      0.0000      0.0000      0.0000      0.0000      0.0000      0.0000      0.0000
  4      0.0000      0.0120      0.0000      0.0000      0.0000      0.0000      0.0000      0.0000      0.0000
  5      0.0000      0.0147      0.0000      0.0000      0.0000      0.0000      0.0000      0.0000      0.0000
  6      0.0000      0.0159      0.0000      0.0000      0.0000      0.0000      0.0000      0.0000      0.0000
  7      0.0000      0.0050      0.0000      0.0000      0.0000      0.0000      0.0000      0.0000      0.0000
  8      0.0000      0.0024      0.0000      0.0000      0.0000      0.0000      0.0000      0.0000      0.0000
  9      0.0000      0.0047      0.0000      0.0000      0.0000      0.0000      0.0000      0.0000      0.0000
 10      0.0000      0.0039      0.0000      0.0000      0.0000      0.0000      0.0000      0.0000      0.0000
 11      0.0000      0.0109      0.0000      0.0000      0.0000      0.0000      0.0000      0.0000      0.0000
 12      0.0000      0.0469      0.0000      0.0000      0.0000      0.0000      0.0796      0.0000      0.0000
 13      0.0000      0.0473      0.0000      0.0000      0.0000      0.0000      0.0000      0.0000      0.0000
 14      0.0000      0.0374      0.0000      0.0000      0.0000      0.0000      0.0000      0.0000      0.0000
 15      0.0000      0.0437      0.0000      0.0000      0.0000      0.0000      0.0000      0.0000      0.0000
 16      0.0000     10.4869     10.4882     11.1224      8.3221      9.3131      6.8978      1.1881      1.9589
 17      0.0000      0.4144      0.0000      0.0000      0.0000      1.1718      0.0000      0.1605      0.1280
 18      0.0000      0.0170      0.0000      0.0000      0.0000      0.0000      0.0000      0.0000      0.0000
 19      0.0000      0.0350      0.0000      0.0000      0.0000      0.0000      0.0000      0.0000      0.0000
 20      0.0000      0.0761      0.0000      0.0000      0.0000      0.0000      0.0000      0.0000      0.0000
 21      0.0000      0.0064      0.0000      0.0000      0.0000      0.0000      0.0000      0.0000      0.0000
 22      0.0000      0.0062      0.0000      0.0000      0.0000      0.0000      0.0000      0.0000      0.0000
 23      0.0000      0.0024      0.0000      0.0000      0.0000      0.0000      0.0000      0.0000      0.0000
 24      0.0000      0.0036      0.0000      0.0000      0.0000      0.0000      0.0000      0.0000      0.0000
 25      0.0000      0.0076      0.0000      0.0000      0.0000      0.0000      0.0000      0.0000      0.0000
 26      0.0000      0.0256      0.0000      0.0000      0.0000      0.0409      0.0000      0.0000      0.0000
 27      0.0000      0.0425      0.0000      0.0000      0.0000      0.0000      0.0000      0.3312      0.3518
 28      0.0000      0.1034      0.0000      0.0000      0.0000      0.0000      0.0000      0.0000      0.0507
 29      0.0000      0.9619      0.8784      1.0511      0.5221      0.9016      0.7486      0.6874      0.9032
 30      0.0000      0.1671      0.1592      0.0000      0.3303      0.0000      0.0000      0.4040      0.0000
 31      0.0000      0.5192      0.5504      0.0000      0.0000      0.0000      0.0000      0.8555      0.8632
 32      0.0000      0.0666      0.0000      0.0000      0.0000      0.0000      0.0000      0.0000      0.0000
 33      0.0000      0.0351      0.0000      0.0000      0.0000      0.0000      0.0000      0.0000      0.0000
 34      0.0000      0.0645      0.0000      0.0000      0.0000      0.0000      0.1800      0.0000      0.0000
 35      0.0000      0.0218      0.0000      0.0000      0.0000      0.0000      0.0000      0.0000      0.0000
 36      0.0000      0.0022      0.0000      0.0000      0.0000      0.0000      0.0000      0.0000      0.0000
 37      0.0000      0.0039      0.0000      0.0000      0.0000      0.0000      0.0000      0.0000      0.0000
 38      0.0000      0.0031      0.0000      0.0000      0.0000      0.0000      0.0032      0.0000      0.0000
 39      0.0000      0.0049      0.0000      0.0000      0.0000      0.0000      0.0000      0.0000      0.0000
 40      0.0000      0.0106      0.0729      0.0000      0.0207      0.0000      0.0000      0.0000      0.0000
 41      0.0000      0.0387      0.0000      0.1447      0.0000      0.1448      0.0000      0.0000      0.0000
 42      0.0000      0.1738      0.0000      0.0000      0.0000      0.4238      0.0000      0.0000      0.5224
 43      0.0000      1.3463      1.3390      1.6470      1.4442      1.0878      1.5696      1.4133      0.8622
 44      1.4198      1.9744      2.0936      2.1228      2.2948      1.6194      2.0258      1.5299      1.5354
 45      6.2461      3.4806      3.7823      3.5412      3.9559      4.3325      3.8649      4.0148      3.8519

# j      m_j: min, <> & last-chain-values for 1 ...  7 chains
  1  1.2290E+00  1.2764E+00  1.2376E+00  1.2530E+00  1.2152E+00  1.2294E+00  1.3022E+00  1.3891E+00  1.4697E+00
  2  0.0000E+00  3.2460E-05  0.0000E+00  0.0000E+00  0.0000E+00  0.0000E+00  0.0000E+00  0.0000E+00  0.0000E+00
  3  0.0000E+00  2.4642E-04  0.0000E+00  0.0000E+00  0.0000E+00  0.0000E+00  0.0000E+00  0.0000E+00  0.0000E+00
  4  0.0000E+00  1.4032E-04  0.0000E+00  0.0000E+00  0.0000E+00  0.0000E+00  0.0000E+00  0.0000E+00  0.0000E+00
  5  0.0000E+00  3.9726E-04  0.0000E+00  0.0000E+00  0.0000E+00  0.0000E+00  0.0000E+00  0.0000E+00  0.0000E+00
  6  0.0000E+00  5.9845E-04  0.0000E+00  0.0000E+00  0.0000E+00  0.0000E+00  0.0000E+00  0.0000E+00  0.0000E+00
  7  0.0000E+00  2.6876E-04  0.0000E+00  0.0000E+00  0.0000E+00  0.0000E+00  0.0000E+00  0.0000E+00  0.0000E+00
  8  0.0000E+00  2.5148E-04  0.0000E+00  0.0000E+00  0.0000E+00  0.0000E+00  0.0000E+00  0.0000E+00  0.0000E+00
  9  0.0000E+00  9.7105E-04  0.0000E+00  0.0000E+00  0.0000E+00  0.0000E+00  0.0000E+00  0.0000E+00  0.0000E+00
 10  0.0000E+00  1.1131E-03  0.0000E+00  0.0000E+00  0.0000E+00  0.0000E+00  0.0000E+00  0.0000E+00  0.0000E+00
 11  0.0000E+00  5.5012E-03  0.0000E+00  0.0000E+00  0.0000E+00  0.0000E+00  0.0000E+00  0.0000E+00  0.0000E+00
 12  0.0000E+00  4.3860E-02  0.0000E+00  0.0000E+00  0.0000E+00  0.0000E+00  7.1694E-02  0.0000E+00  0.0000E+00
 13  0.0000E+00  8.8017E-02  0.0000E+00  0.0000E+00  0.0000E+00  0.0000E+00  0.0000E+00  0.0000E+00  0.0000E+00
 14  0.0000E+00  1.4183E-01  0.0000E+00  0.0000E+00  0.0000E+00  0.0000E+00  0.0000E+00  0.0000E+00  0.0000E+00
 15  0.0000E+00  1.9204E-01  0.0000E+00  0.0000E+00  0.0000E+00  0.0000E+00  0.0000E+00  0.0000E+00  0.0000E+00
 16  0.0000E+00  8.8549E-02  8.4954E-02  9.1548E-02  6.4414E-02  7.4655E-02  5.6159E-02  9.8037E-03  1.7195E-02
 17  0.0000E+00  1.8190E-03  0.0000E+00  0.0000E+00  0.0000E+00  4.8829E-03  0.0000E+00  6.8857E-04  5.8393E-04
 18  0.0000E+00  8.2787E-05  0.0000E+00  0.0000E+00  0.0000E+00  0.0000E+00  0.0000E+00  0.0000E+00  0.0000E+00
 19  0.0000E+00  5.0835E-04  0.0000E+00  0.0000E+00  0.0000E+00  0.0000E+00  0.0000E+00  0.0000E+00  0.0000E+00
 20  0.0000E+00  2.4624E-03  0.0000E+00  0.0000E+00  0.0000E+00  0.0000E+00  0.0000E+00  0.0000E+00  0.0000E+00
 21  0.0000E+00  2.5021E-04  0.0000E+00  0.0000E+00  0.0000E+00  0.0000E+00  0.0000E+00  0.0000E+00  0.0000E+00
 22  0.0000E+00  3.9868E-04  0.0000E+00  0.0000E+00  0.0000E+00  0.0000E+00  0.0000E+00  0.0000E+00  0.0000E+00
 23  0.0000E+00  3.0513E-04  0.0000E+00  0.0000E+00  0.0000E+00  0.0000E+00  0.0000E+00  0.0000E+00  0.0000E+00
 24  0.0000E+00  1.0477E-03  0.0000E+00  0.0000E+00  0.0000E+00  0.0000E+00  0.0000E+00  0.0000E+00  0.0000E+00
 25  0.0000E+00  3.4003E-03  0.0000E+00  0.0000E+00  0.0000E+00  0.0000E+00  0.0000E+00  0.0000E+00  0.0000E+00
 26  0.0000E+00  2.1567E-02  0.0000E+00  0.0000E+00  0.0000E+00  3.2710E-02  0.0000E+00  0.0000E+00  0.0000E+00
 27  0.0000E+00  7.2815E-02  0.0000E+00  0.0000E+00  0.0000E+00  0.0000E+00  0.0000E+00  5.5396E-01  6.2588E-01
 28  0.0000E+00  3.5825E-01  0.0000E+00  0.0000E+00  0.0000E+00  0.0000E+00  0.0000E+00  0.0000E+00  1.8264E-01
 29  0.0000E+00  7.0522E+00  6.1777E+00  7.5120E+00  3.5090E+00  6.2749E+00  5.2918E+00  4.9250E+00  6.8837E+00
 30  0.0000E+00  1.4611E+00  1.3354E+00  0.0000E+00  2.6479E+00  0.0000E+00  0.0000E+00  3.4533E+00  0.0000E+00
 31  0.0000E+00  3.2885E-03  3.3443E-03  0.0000E+00  0.0000E+00  0.0000E+00  0.0000E+00  5.2954E-03  5.6836E-03
 32  0.0000E+00  2.2251E-04  0.0000E+00  0.0000E+00  0.0000E+00  0.0000E+00  0.0000E+00  0.0000E+00  0.0000E+00
 33  0.0000E+00  1.7400E-04  0.0000E+00  0.0000E+00  0.0000E+00  0.0000E+00  0.0000E+00  0.0000E+00  0.0000E+00
