###################################################################
## OUTPUT of StarlightChains_v04.for    [Cid@UFSC - 01/Apr/2007] ##
###################################################################

## Some input info
M33_LS4_20211119f_1.spec                 [arq_obs]
Base.BC03.N                              [arq_base]
Mask.EmLines_CHAOS_focusbluefit.gm       [arq_masks]
StCv04.C11.config                        [arq_config]
   45                                    [N_base]
    0                                    [N_YAV_components = # of components with extra extinction!]
    0                                    [i_FitPowerLaw (1/0 = Yes/No)]
-9.99                                    [alpha_PowerLaw]
CCM                                      [red_law_option]
 1.458241                                [q_norm = A(l_norm)/A(V)]

## (Re)Sampling Parameters
 3100.00                                 [l_ini (A)]
 5300.00                                 [l_fin (A)]
    1.00                                 [dl    (A)]     (OBS: dl_cushion =    50.00 A)

## Normalization info
 4020.00                                 [l_norm (A) - for base]
 4010.00                                 [llow_norm (A) - window for f_obs]
 4060.00                                 [lupp_norm (A) - window for f_obs]
7.646527E-16                             [fobs_norm (in input units)]

## S/N
 4730.00                                 [llow_SN (A) - window for S/N]
 4780.00                                 [lupp_SN (A) - window for S/N]
  66.638                                 [S/N in S/N window]
 101.674                                 [S/N in norm. window]
  53.427                                 [S/N_err in S/N window]
  81.517                                 [S/N_err in norm. window]
  1.0000                                 [fscale_chi2]

## etc...
    -2007205                             [idum_orig]
  1493                                   [NOl_eff]
   928                                   [Nl_eff]
   565    NSIGMA                         [Ntot_cliped & clip_method]
   468160                                [Nglobal_steps]
   7                                     [N_chains]
   5                                     [NEX0s_base = N_base in EX0s-fits]
 0   0   1        0   2.0   1.099E+02    [Clip-Bug, RC-Crash & Burn-In warning-flags, n_censored_weights, wei_nsig_threshold & wei_limit]
     5      4.403      4.387      0.016  [idt_all, wdt_TotTime, wdt_UsrTime & wdt_SysTime (sec)]

## Synthesis Results - Best model ##

 2.00125E+00                             [chi2/Nl_eff]
     2.33290                             [adev (%)]

   106.56762                             [sum-of-x (%)]
 5.83852E-16                             [Flux_tot (units of input spectrum!)]
 1.07130E-11                             [Mini_tot (???)]
 5.42111E-12                             [Mcor_tot (???)]

 238.07                                  [v0_min  (km/s)]
 358.08                                  [vd_min  (km/s)]
-0.2482                                  [AV_min  (mag)]
 0.0000                                  [YAV_min (mag)]

# j     x_j(%)      Mini_j(%)     Mcor_j(%)     age_j(yr)     Z_j      (L/M)_j    YAV?  Mstars   component_j        a/Fe...       SSP_chi2r SSP_adev(%)   SSP_AV   SSP_x(%)
  1     94.8918     4.3562E-01    8.6086E-01    1.000000E+06  0.00400  1.114E-02    0   1.0000   age020_m42            0.0000     7.4614E+00     4.7533   0.6568   106.5473
  2      0.0000     0.0000E+00    0.0000E+00    3.160000E+06  0.00400  4.073E-02    0   0.9999   age045_m42            0.0000     3.8916E+01    11.0553  -0.3444   119.8965
  3      0.0000     0.0000E+00    0.0000E+00    5.010000E+06  0.00400  2.534E-02    0   0.9488   age055_m42            0.0000     2.4103E+01     8.7116   0.0694   114.2827
  4      0.0000     0.0000E+00    0.0000E+00    1.000000E+07  0.00400  1.271E-02    0   0.8862   age070_m42            0.0000     2.7918E+01     9.1461  -0.5771   116.9165
  5      0.0000     0.0000E+00    0.0000E+00    2.512000E+07  0.00400  5.070E-03    0   0.8174   age090_m42            0.0000     3.1342E+01     9.8010  -0.7352   118.9987
  6      0.0000     0.0000E+00    0.0000E+00    4.000000E+07  0.00400  3.505E-03    0   0.7851   age104_m42            0.0000     4.0719E+01    11.1504  -1.0000   120.7480
  7      0.0000     0.0000E+00    0.0000E+00    1.015200E+08  0.00400  2.268E-03    0   0.7207   age116_m42            0.0000     1.1265E+02    17.7732  -1.0000   125.1807
  8      0.0000     0.0000E+00    0.0000E+00    2.861200E+08  0.00400  1.079E-03    0   0.6613   age125_m42            0.0000     1.6259E+02    19.0154  -1.0000   118.6294
  9      0.0000     0.0000E+00    0.0000E+00    6.405400E+08  0.00400  5.077E-04    0   0.6197   age132_m42            0.0000     1.9643E+02    21.5006  -1.0000   115.4291
 10      0.0000     0.0000E+00    0.0000E+00    9.047900E+08  0.00400  3.535E-04    0   0.6024   age135_m42            0.0000     2.1187E+02    23.4125  -1.0000   110.2241
 11      0.0000     0.0000E+00    0.0000E+00    1.434000E+09  0.00400  1.910E-04    0   0.5716   age139_m42            0.0000     2.7143E+02    28.0024  -1.0000    98.0393
 12      0.0000     0.0000E+00    0.0000E+00    2.500000E+09  0.00400  9.818E-05    0   0.5463   age150_m42            0.0000     3.2235E+02    31.6975  -1.0000    88.5429
 13      0.0000     0.0000E+00    0.0000E+00    5.000000E+09  0.00400  4.718E-05    0   0.5228   age161_m42            0.0000     3.6073E+02    33.9344  -1.0000    82.7923
 14      0.0000     0.0000E+00    0.0000E+00    1.100000E+10  0.00400  2.205E-05    0   0.4980   age185_m42            0.0000     4.2964E+02    37.1358  -1.0000    75.5330
 15      0.0000     0.0000E+00    0.0000E+00    1.300000E+10  0.00400  1.883E-05    0   0.4927   age193_m42            0.0000     4.3595E+02    37.3899  -1.0000    75.1209
 16      0.0000     0.0000E+00    0.0000E+00    1.000000E+06  0.02000  1.989E-02    0   1.0000   age020_m62            0.0000     8.1382E+00     4.8920   0.6183   107.4812
 17      0.0000     0.0000E+00    0.0000E+00    3.160000E+06  0.02000  3.772E-02    0   0.9858   age045_m62            0.0000     1.3408E+01     6.5034   0.4466   110.3556
 18      0.0000     0.0000E+00    0.0000E+00    5.010000E+06  0.02000  3.227E-02    0   0.9342   age055_m62            0.0000     3.8170E+01    10.8365  -0.1060   116.8372
 19      0.0000     0.0000E+00    0.0000E+00    1.000000E+07  0.02000  1.011E-02    0   0.8751   age070_m62            0.0000     1.3276E+01     6.1719  -0.4157   114.4518
 20      0.0000     0.0000E+00    0.0000E+00    2.512000E+07  0.02000  4.206E-03    0   0.8099   age090_m62            0.0000     2.0534E+01     7.9960  -0.6168   115.6392
 21      0.0000     0.0000E+00    0.0000E+00    4.000000E+07  0.02000  3.373E-03    0   0.7799   age104_m62            0.0000     4.7961E+01    12.3209  -0.8780   122.2694
 22      0.0000     0.0000E+00    0.0000E+00    1.015200E+08  0.02000  1.878E-03    0   0.7221   age116_m62            0.0000     1.0529E+02    17.5758  -1.0000   126.6050
 23      0.0000     0.0000E+00    0.0000E+00    2.861200E+08  0.02000  8.869E-04    0   0.6700   age125_m62            0.0000     1.9450E+02    21.1533  -1.0000   122.8732
 24      0.0000     0.0000E+00    0.0000E+00    6.405400E+08  0.02000  3.657E-04    0   0.6322   age132_m62            0.0000     2.5499E+02    25.4861  -1.0000   111.5028
 25      0.0000     0.0000E+00    0.0000E+00    9.047900E+08  0.02000  2.312E-04    0   0.6152   age135_m62            0.0000     2.8656E+02    28.0513  -1.0000   102.7741
 26      0.0000     0.0000E+00    0.0000E+00    1.434000E+09  0.02000  1.168E-04    0   0.5865   age139_m62            0.0000     3.4393E+02    32.4281  -1.0000    89.5971
 27      0.0000     0.0000E+00    0.0000E+00    2.500000E+09  0.02000  5.505E-05    0   0.5610   age150_m62            0.0000     4.2492E+02    36.6652  -1.0000    79.2709
 28      0.0000     0.0000E+00    0.0000E+00    5.000000E+09  0.02000  2.596E-05    0   0.5353   age161_m62            0.0000     5.1120E+02    40.2481  -1.0000    71.8244
 29      0.0000     0.0000E+00    0.0000E+00    1.100000E+10  0.02000  1.169E-05    0   0.5103   age185_m62            0.0000     6.0282E+02    43.5539  -1.0000    65.1899
 30      1.0063     5.3106E+00    5.2966E+00    1.300000E+10  0.02000  9.691E-06    0   0.5047   age193_m62            0.0000     6.1539E+02    43.9501  -1.0000    64.4511
 31      0.0000     0.0000E+00    0.0000E+00    1.000000E+06  0.05000  2.651E-02    0   0.9998   age020_m72            0.0000     9.0579E+00     5.1719   0.5883   108.4102
 32      0.0000     0.0000E+00    0.0000E+00    3.160000E+06  0.05000  4.817E-02    0   0.9577   age045_m72            0.0000     2.4052E+01     8.5600   0.2278   114.0344
 33      0.0000     0.0000E+00    0.0000E+00    5.010000E+06  0.05000  3.101E-02    0   0.9147   age055_m72            0.0000     2.4477E+01     8.6078  -0.0540   116.1738
 34      0.0000     0.0000E+00    0.0000E+00    1.000000E+07  0.05000  8.954E-03    0   0.8524   age070_m72            0.0000     2.2683E+01     8.3590   0.1100   115.1650
 35      0.0000     0.0000E+00    0.0000E+00    2.512000E+07  0.05000  4.207E-03    0   0.7902   age090_m72            0.0000     4.3265E+01    11.7400  -0.3450   120.3085
 36      0.0000     0.0000E+00    0.0000E+00    4.000000E+07  0.05000  3.198E-03    0   0.7618   age104_m72            0.0000     7.3411E+01    15.1693  -0.8084   125.4737
 37      0.0000     0.0000E+00    0.0000E+00    1.015200E+08  0.05000  1.716E-03    0   0.7092   age116_m72            0.0000     1.2612E+02    19.3989  -1.0000   127.8115
 38      0.0000     0.0000E+00    0.0000E+00    2.861200E+08  0.05000  7.047E-04    0   0.6618   age125_m72            0.0000     2.1509E+02    21.8091  -1.0000   118.8719
 39      0.0000     0.0000E+00    0.0000E+00    6.405400E+08  0.05000  2.633E-04    0   0.6253   age132_m72            0.0000     2.9523E+02    28.2175  -1.0000   102.7242
 40      0.0000     0.0000E+00    0.0000E+00    9.047900E+08  0.05000  1.484E-04    0   0.6088   age135_m72            0.0000     3.6628E+02    33.2176  -1.0000    88.1726
 41      0.0000     0.0000E+00    0.0000E+00    1.434000E+09  0.05000  7.827E-05    0   0.5847   age139_m72            0.0000     4.5635E+02    37.8392  -1.0000    77.0034
 42      0.0000     0.0000E+00    0.0000E+00    2.500000E+09  0.05000  3.759E-05    0   0.5583   age150_m72            0.0000     5.3681E+02    41.2275  -1.0000    69.8206
 43      0.0000     0.0000E+00    0.0000E+00    5.000000E+09  0.05000  1.548E-05    0   0.5320   age161_m72            0.0000     6.2443E+02    44.3048  -1.0000    62.1801
 44      4.6836     3.6669E+01    3.6739E+01    1.100000E+10  0.05000  6.532E-06    0   0.5070   age185_m72            0.0000     7.1405E+02    47.0325  -1.0000    55.0304
 45      5.9858     5.7585E+01    5.7103E+01    1.300000E+10  0.05000  5.316E-06    0   0.5018   age193_m72            0.0000     7.4283E+02    47.8161  -1.0000    52.9462


## Synthesis Results - Average & Chains ##

# j      x_j: min, <> & last-chain-values for 1 ...  7 chains
  1     94.8918     93.8232     94.4400     94.6715     94.3674     94.2712     94.6187     94.3948     94.6498
  2      0.0000      0.0072      0.0000      0.0000      0.0000      0.0000      0.0095      0.0000      0.0000
  3      0.0000      0.0126      0.0000      0.0000      0.0000      0.0000      0.0000      0.0000      0.0000
  4      0.0000      0.0135      0.0000      0.0000      0.0000      0.0000      0.0000      0.0000      0.0000
  5      0.0000      0.0086      0.0000      0.0000      0.0256      0.0000      0.0000      0.0000      0.0000
  6      0.0000      0.0062      0.0000      0.0000      0.0000      0.0000      0.0000      0.0000      0.0000
  7      0.0000      0.0013      0.0000      0.0000      0.0000      0.0000      0.0000      0.0000      0.0000
  8      0.0000      0.0003      0.0000      0.0000      0.0000      0.0000      0.0000      0.0000      0.0000
  9      0.0000      0.0013      0.0000      0.0000      0.0000      0.0000      0.0000      0.0000      0.0000
 10      0.0000      0.0014      0.0000      0.0000      0.0000      0.0000      0.0000      0.0000      0.0000
 11      0.0000      0.0024      0.0000      0.0000      0.0000      0.0000      0.0000      0.0000      0.0000
 12      0.0000      0.0034      0.0000      0.0000      0.0000      0.0000      0.0000      0.0000      0.0000
 13      0.0000      0.0063      0.0000      0.0000      0.0000      0.0000      0.0000      0.0000      0.0000
 14      0.0000      0.0205      0.0000      0.0048      0.0000      0.0000      0.0000      0.0000      0.0000
 15      0.0000      0.0078      0.0000      0.0000      0.0000      0.0000      0.0000      0.0000      0.0000
 16      0.0000      0.2330      0.1122      0.0000      0.0000      0.0000      0.0000      0.0000      0.0000
 17      0.0000      0.1311      0.0000      0.0000      0.0000      0.0741      0.0000      0.0000      0.0000
 18      0.0000      0.0068      0.0000      0.0000      0.0000      0.0000      0.0000      0.0000      0.0000
 19      0.0000      0.0263      0.0000      0.0000      0.0000      0.0000      0.0000      0.0000      0.0045
 20      0.0000      0.0108      0.0000      0.0000      0.0000      0.0003      0.0000      0.0060      0.0195
 21      0.0000      0.0055      0.0000      0.0053      0.0000      0.0000      0.0000      0.0000      0.0000
 22      0.0000      0.0013      0.0000      0.0000      0.0000      0.0000      0.0000      0.0000      0.0000
 23      0.0000      0.0024      0.0000      0.0000      0.0000      0.0000      0.0000      0.0000      0.0000
 24      0.0000      0.0005      0.0000      0.0000      0.0000      0.0000      0.0000      0.0000      0.0000
 25      0.0000      0.0065      0.0000      0.0000      0.0000      0.0000      0.0000      0.0000      0.0000
 26      0.0000      0.0042      0.0000      0.0000      0.0000      0.0000      0.0000      0.0000      0.0000
 27      0.0000      0.0110      0.0000      0.0000      0.0000      0.0000      0.0000      0.0000      0.0735
 28      0.0000      0.0311      0.0000      0.0000      0.0000      0.0000      0.0055      0.0000      0.0000
 29      0.0000      0.6578      0.3007      0.8839      0.5445      0.5415      0.0000      0.6758      0.5283
 30      1.0063      2.6266      2.8501      2.2532      2.6391      2.5966      2.7488      2.6183      2.6007
 31      0.0000      0.1880      0.1383      0.0000      0.1684      0.0000      0.0000      0.2380      0.0000
 32      0.0000      0.0442      0.0000      0.0162      0.0000      0.0000      0.0000      0.0108      0.0000
 33      0.0000      0.0219      0.0000      0.0000      0.0000      0.0890      0.0000      0.0000      0.0068
 34      0.0000      0.0217      0.0000      0.0000      0.0000      0.0000      0.0000      0.0000      0.0000
 35      0.0000      0.0065      0.0000      0.0000      0.0000      0.0000      0.0000      0.0000      0.0000
 36      0.0000      0.0023      0.0000      0.0000      0.0000      0.0000      0.0000      0.0000      0.0000
 37      0.0000      0.0012      0.0000      0.0000      0.0000      0.0000      0.0000      0.0000      0.0000
 38      0.0000      0.0021      0.0000      0.0000      0.0000      0.0000      0.0000      0.0000      0.0000
 39      0.0000      0.0017      0.0000      0.0000      0.0000      0.0000      0.0000      0.0000      0.0000
 40      0.0000      0.0052      0.0000      0.0000      0.0000      0.0000      0.0000      0.0000      0.0000
 41      0.0000      0.0052      0.0000      0.0000      0.0000      0.0000      0.0000      0.0000      0.0000
 42      0.0000      0.0145      0.0000      0.0052      0.0000      0.0000      0.0000      0.0000      0.0000
 43      0.0000      0.4937      0.0000      0.5191      0.0624      0.5622      0.6341      0.4594      0.5029
 44      4.6836      3.9118      3.9210      3.9256      4.0617      4.3223      4.2579      3.8965      3.8520
 45      5.9858      4.4456      5.0559      4.5971      4.8869      4.3720      4.5198      4.5288      4.5719

# j      m_j: min, <> & last-chain-values for 1 ...  7 chains
  1  8.6086E-01  9.1941E-01  8.9084E-01  9.2264E-01  8.9321E-01  9.0522E-01  9.1262E-01  9.2097E-01  9.2798E-01
  2  0.0000E+00  1.9254E-05  0.0000E+00  0.0000E+00  0.0000E+00  0.0000E+00  2.5053E-05  0.0000E+00  0.0000E+00
  3  0.0000E+00  5.1619E-05  0.0000E+00  0.0000E+00  0.0000E+00  0.0000E+00  0.0000E+00  0.0000E+00  0.0000E+00
  4  0.0000E+00  1.0306E-04  0.0000E+00  0.0000E+00  0.0000E+00  0.0000E+00  0.0000E+00  0.0000E+00  0.0000E+00
  5  0.0000E+00  1.5170E-04  0.0000E+00  0.0000E+00  4.3525E-04  0.0000E+00  0.0000E+00  0.0000E+00  0.0000E+00
  6  0.0000E+00  1.5178E-04  0.0000E+00  0.0000E+00  0.0000E+00  0.0000E+00  0.0000E+00  0.0000E+00  0.0000E+00
  7  0.0000E+00  4.4944E-05  0.0000E+00  0.0000E+00  0.0000E+00  0.0000E+00  0.0000E+00  0.0000E+00  0.0000E+00
  8  0.0000E+00  2.3295E-05  0.0000E+00  0.0000E+00  0.0000E+00  0.0000E+00  0.0000E+00  0.0000E+00  0.0000E+00
  9  0.0000E+00  1.6920E-04  0.0000E+00  0.0000E+00  0.0000E+00  0.0000E+00  0.0000E+00  0.0000E+00  0.0000E+00
 10  0.0000E+00  2.6249E-04  0.0000E+00  0.0000E+00  0.0000E+00  0.0000E+00  0.0000E+00  0.0000E+00  0.0000E+00
 11  0.0000E+00  7.9081E-04  0.0000E+00  0.0000E+00  0.0000E+00  0.0000E+00  0.0000E+00  0.0000E+00  0.0000E+00
 12  0.0000E+00  2.0752E-03  0.0000E+00  0.0000E+00  0.0000E+00  0.0000E+00  0.0000E+00  0.0000E+00  0.0000E+00
 13  0.0000E+00  7.6238E-03  0.0000E+00  0.0000E+00  0.0000E+00  0.0000E+00  0.0000E+00  0.0000E+00  0.0000E+00
 14  0.0000E+00  5.0567E-02  0.0000E+00  1.1766E-02  0.0000E+00  0.0000E+00  0.0000E+00  0.0000E+00  0.0000E+00
 15  0.0000E+00  2.2195E-02  0.0000E+00  0.0000E+00  0.0000E+00  0.0000E+00  0.0000E+00  0.0000E+00  0.0000E+00
 16  0.0000E+00  1.2787E-03  5.9285E-04  0.0000E+00  0.0000E+00  0.0000E+00  0.0000E+00  0.0000E+00  0.0000E+00
 17  0.0000E+00  3.7396E-04  0.0000E+00  0.0000E+00  0.0000E+00  2.0704E-04  0.0000E+00  0.0000E+00  0.0000E+00
 18  0.0000E+00  2.1407E-05  0.0000E+00  0.0000E+00  0.0000E+00  0.0000E+00  0.0000E+00  0.0000E+00  0.0000E+00
 19  0.0000E+00  2.4879E-04  0.0000E+00  0.0000E+00  0.0000E+00  0.0000E+00  0.0000E+00  0.0000E+00  4.2344E-05
 20  0.0000E+00  2.2718E-04  0.0000E+00  0.0000E+00  0.0000E+00  6.9488E-06  0.0000E+00  1.2533E-04  4.0917E-04
 21  0.0000E+00  1.3759E-04  0.0000E+00  1.3372E-04  0.0000E+00  0.0000E+00  0.0000E+00  0.0000E+00  0.0000E+00
 22  0.0000E+00  5.4839E-05  0.0000E+00  0.0000E+00  0.0000E+00  0.0000E+00  0.0000E+00  0.0000E+00  0.0000E+00
 23  0.0000E+00  1.9686E-04  0.0000E+00  0.0000E+00  0.0000E+00  0.0000E+00  0.0000E+00  0.0000E+00  0.0000E+00
 24  0.0000E+00  9.4488E-05  0.0000E+00  0.0000E+00  0.0000E+00  0.0000E+00  0.0000E+00  0.0000E+00  0.0000E+00
 25  0.0000E+00  1.8827E-03  0.0000E+00  0.0000E+00  0.0000E+00  0.0000E+00  0.0000E+00  0.0000E+00  0.0000E+00
 26  0.0000E+00  2.3137E-03  0.0000E+00  0.0000E+00  0.0000E+00  0.0000E+00  0.0000E+00  0.0000E+00  0.0000E+00
 27  0.0000E+00  1.2218E-02  0.0000E+00  0.0000E+00  0.0000E+00  0.0000E+00  0.0000E+00  0.0000E+00  8.1836E-02
 28  0.0000E+00  6.9970E-02  0.0000E+00  0.0000E+00  0.0000E+00  0.0000E+00  1.2129E-02  0.0000E+00  0.0000E+00
 29  0.0000E+00  3.1347E+00  1.3794E+00  4.1893E+00  2.5063E+00  2.5286E+00  0.0000E+00  3.2066E+00  2.5187E+00
 30  5.2966E+00  1.4933E+01  1.5598E+01  1.2740E+01  1.4492E+01  1.4466E+01  1.5382E+01  1.4821E+01  1.4793E+01
 31  0.0000E+00  7.7404E-04  5.4798E-04  0.0000E+00  6.6953E-04  0.0000E+00  0.0000E+00  9.7578E-04  0.0000E+00
 32  0.0000E+00  9.5847E-05  0.0000E+00  3.5034E-05  0.0000E+00  0.0000E+00  0.0000E+00  2.3346E-05  0.0000E+00
 33  0.0000E+00  7.0364E-05  0.0000E+00  0.0000E+00  0.0000E+00  2.8072E-04  0.0000E+00  0.0000E+00  2.1917E-05
